;  Optical constants for amorphous SiO2 (fused quartz)
;  
;  Concatenation of:
;
;  a-SiO2_llnl_cxro + a-SiO2_palik
;
;    Lambda (A)            n            k
;-----------------------------------------
      0.12398000       0.99999995    2.8582216e-12
      0.12499080       0.99999995    2.9580646e-12
      0.12600983       0.99999995    3.0613123e-12
      0.12703718       0.99999995    3.1683323e-12
      0.12807290       0.99999995    3.2788798e-12
      0.12911707       0.99999995    3.3933281e-12
      0.13016975       0.99999995    3.5111729e-12
      0.13123101       0.99999995    3.6335540e-12
      0.13230092       0.99999995    3.7602026e-12
      0.13337956       0.99999995    3.8909474e-12
      0.13446699       0.99999995    4.0276732e-12
      0.13556329       0.99999995    4.1674518e-12
      0.13666852       0.99999994    4.3134037e-12
      0.13778277       0.99999994    4.4624768e-12
      0.13890610       0.99999994    4.6185951e-12
      0.14003858       0.99999994    4.7796752e-12
      0.14118030       0.99999994    4.9462225e-12
      0.14233133       0.99999994    5.1197003e-12
      0.14349175       0.99999994    5.2974168e-12
      0.14466162       0.99999994    5.4828518e-12
      0.14584103       0.99999994    5.6721354e-12
      0.14703006       0.99999994    5.8707252e-12
      0.14822878       0.99999994    6.0754083e-12
      0.14943728       0.99999993    6.2863881e-12
      0.15065563       0.99999993    6.5077366e-12
      0.15188391       0.99999993    6.7336725e-12
      0.15312220       0.99999993    6.9694424e-12
      0.15437059       0.99999993    7.2113362e-12
      0.15562916       0.99999993    7.4617588e-12
      0.15689799       0.99999993    7.7221605e-12
      0.15817716       0.99999993    7.9922607e-12
      0.15946677       0.99999992    8.2724699e-12
      0.16076688       0.99999992    8.5584707e-12
      0.16207760       0.99999992    8.8587303e-12
      0.16339900       0.99999992    9.1664961e-12
      0.16473118       0.99999992    9.4866089e-12
      0.16607422       0.99999992    9.8185768e-12
      0.16742821       0.99999992    1.0161891e-11
      0.16879323       0.99999992    1.0516504e-11
      0.17016939       0.99999991    1.0883159e-11
      0.17155676       0.99999991    1.1262587e-11
      0.17295545       0.99999991    1.1656026e-11
      0.17436554       0.99999991    1.2062415e-11
      0.17578712       0.99999991    1.2484370e-11
      0.17722030       0.99999991    1.2917499e-11
      0.17866516       0.99999991    1.3370436e-11
      0.18012180       0.99999990    1.3835783e-11
      0.18159031       0.99999990    1.4317769e-11
      0.18307080       0.99999990    1.4815441e-11
      0.18456336       0.99999990    1.5331738e-11
      0.18606809       0.99999990    1.5866962e-11
      0.18758508       0.99999990    1.6420788e-11
      0.18911444       0.99999989    1.6993559e-11
      0.19065628       0.99999989    1.7582406e-11
      0.19221068       0.99999989    1.8199789e-11
      0.19377775       0.99999989    1.8831447e-11
      0.19535760       0.99999989    1.9490488e-11
      0.19695034       0.99999989    2.0164965e-11
      0.19855605       0.99999988    2.0869735e-11
      0.20017486       0.99999988    2.1598359e-11
      0.20180687       0.99999988    2.2347994e-11
      0.20345218       0.99999988    2.3128917e-11
      0.20511091       0.99999988    2.3936521e-11
      0.20678315       0.99999987    2.4766044e-11
      0.20846904       0.99999987    2.5629560e-11
      0.21016867       0.99999987    2.6526997e-11
      0.21188215       0.99999987    2.7443104e-11
      0.21360961       0.99999987    2.8398369e-11
      0.21535114       0.99999986    2.9386801e-11
      0.21710688       0.99999986    3.0413365e-11
      0.21887693       0.99999986    3.1470875e-11
      0.22066141       0.99999986    3.2566107e-11
      0.22246045       0.99999985    3.3697462e-11
      0.22427414       0.99999985    3.4866844e-11
      0.22610263       0.99999985    3.6137152e-11
      0.22794602       0.99999985    3.7395954e-11
      0.22980444       0.99999984    3.8693957e-11
      0.23167802       0.99999984    4.0039001e-11
      0.23356687       0.99999984    4.1429976e-11
      0.23547111       0.99999984    4.2871412e-11
      0.23739089       0.99999983    4.4360909e-11
      0.23932631       0.99999983    4.5901968e-11
      0.24127752       0.99999983    4.7496580e-11
      0.24324463       0.99999983    4.9143216e-11
      0.24522778       0.99999982    5.0853471e-11
      0.24722710       0.99999982    5.2620790e-11
      0.24924272       0.99999982    5.4446573e-11
      0.25127477       0.99999981    5.6333567e-11
      0.25332339       0.99999981    5.8284630e-11
      0.25538871       0.99999981    6.0307302e-11
      0.25747087       0.99999980    6.2399247e-11
      0.25957000       0.99999980    6.4564328e-11
      0.26168625       0.99999980    6.6802299e-11
      0.26381975       0.99999979    6.9110872e-11
      0.26597065       0.99999979    7.1511762e-11
      0.26813908       0.99999979    7.3993484e-11
      0.27032520       0.99999978    7.6561151e-11
      0.27252913       0.99999978    7.9218346e-11
      0.27475103       0.99999978    8.1965330e-11
      0.27699105       0.99999977    8.4807847e-11
      0.27924933       0.99999977    8.7732014e-11
      0.28152603       0.99999977    9.0774959e-11
      0.28382128       0.99999976    9.3911122e-11
      0.28613525       0.99999976    9.7173680e-11
      0.28846808       0.99999975    1.0050957e-10
      0.29081993       0.99999975    1.0400816e-10
      0.29319096       0.99999975    1.0758255e-10
      0.29558132       0.99999974    1.1131160e-10
      0.29799117       0.99999974    1.1516277e-10
      0.30042066       0.99999973    1.1915040e-10
      0.30286996       0.99999973    1.2326799e-10
      0.30533923       0.99999972    1.2753862e-10
      0.30782863       0.99999972    1.3195127e-10
      0.31033833       0.99999972    1.3650735e-10
      0.31286848       0.99999971    1.4122711e-10
      0.31541927       0.99999971    1.4610655e-10
      0.31799085       0.99999970    1.5113226e-10
      0.32058340       0.99999970    1.5636808e-10
      0.32319709       0.99999969    1.6176440e-10
      0.32583208       0.99999969    1.6733802e-10
      0.32848856       0.99999968    1.7312438e-10
      0.33116670       0.99999968    1.7907689e-10
      0.33386667       0.99999967    1.8525950e-10
      0.33658865       0.99999967    1.9164884e-10
      0.33933282       0.99999966    1.9823519e-10
      0.34209937       0.99999965    2.0508849e-10
      0.34488847       0.99999965    2.1214154e-10
      0.34770032       0.99999964    2.1945879e-10
      0.35053508       0.99999964    2.2701932e-10
      0.35339296       0.99999963    2.3485954e-10
      0.35627414       0.99999962    2.4294381e-10
      0.35917881       0.99999962    2.5127269e-10
      0.36210716       0.99999961    2.5993800e-10
      0.36505938       0.99999961    2.6886929e-10
      0.36803568       0.99999960    2.7812752e-10
      0.37103624       0.99999959    2.8767235e-10
      0.37406126       0.99999959    2.9759721e-10
      0.37711095       0.99999958    3.0782443e-10
      0.38018549       0.99999957    3.1836532e-10
      0.38328511       0.99999957    3.2930665e-10
      0.38641000       0.99999956    3.4064713e-10
      0.38956036       0.99999955    3.5232818e-10
      0.39273641       0.99999954    3.6442541e-10
      0.39593835       0.99999954    3.7693978e-10
      0.39916640       0.99999953    3.8990700e-10
      0.40242076       0.99999952    4.0324991e-10
      0.40570166       0.99999951    4.1715099e-10
      0.40900931       0.99999951    4.3026328e-10
      0.41234392       0.99999950    4.4165210e-10
      0.41570572       0.99999949    4.5586572e-10
      0.41909493       0.99999948    4.7136967e-10
      0.42251177       0.99999947    4.8750088e-10
      0.42595647       0.99999946    5.0406935e-10
      0.42942925       0.99999945    5.2131677e-10
      0.43293034       0.99999945    5.3901994e-10
      0.43645998       0.99999944    5.5745959e-10
      0.44001840       0.99999943    5.7637558e-10
      0.44360583       0.99999942    5.9609230e-10
      0.44722250       0.99999941    6.1630636e-10
      0.45086866       0.99999940    6.3738495e-10
      0.45454455       0.99999939    6.5898210e-10
      0.45825041       0.99999938    6.8151664e-10
      0.46198648       0.99999937    7.0459202e-10
      0.46575301       0.99999936    7.2868429e-10
      0.46955025       0.99999935    7.5333872e-10
      0.47337845       0.99999934    7.7909798e-10
      0.47723786       0.99999933    8.0544363e-10
      0.48112873       0.99999932    8.3297883e-10
      0.48505133       0.99999930    8.6112316e-10
      0.48900590       0.99999929    8.9055843e-10
      0.49299272       0.99999928    9.2062622e-10
      0.49701204       0.99999927    9.5209035e-10
      0.50106413       0.99999926    9.8422294e-10
      0.50514926       0.99999925    1.0178476e-09
      0.50926770       0.99999923    1.0521978e-09
      0.51341971       0.99999922    1.0881203e-09
      0.51760557       0.99999921    1.1248414e-09
      0.52182555       0.99999919    1.1632194e-09
      0.52607995       0.99999918    1.2024741e-09
      0.53036903       0.99999917    1.2434666e-09
      0.53469307       0.99999915    1.2854221e-09
      0.53905238       0.99999914    1.3292169e-09
      0.54344722       0.99999913    1.3740673e-09
      0.54787789       0.99999911    1.4208513e-09
      0.55234469       0.99999910    1.4687913e-09
      0.55684790       0.99999908    1.5187669e-09
      0.56138783       0.99999907    1.5700082e-09
      0.56596477       0.99999905    1.6233918e-09
      0.57057902       0.99999904    1.6781609e-09
      0.57523090       0.99999902    1.7351795e-09
      0.57992070       0.99999901    1.7937124e-09
      0.58464874       0.99999899    1.8546213e-09
      0.58941532       0.99999897    1.9171869e-09
      0.59422077       0.99999896    1.9822460e-09
      0.59906539       0.99999894    2.0491174e-09
      0.60394951       0.99999892    2.1186159e-09
      0.60887346       0.99999890    2.1900884e-09
      0.61383754       0.99999889    2.2643139e-09
      0.61884210       0.99999887    2.3406929e-09
      0.62388746       0.99999885    2.4199620e-09
      0.62897395       0.99999883    2.5015691e-09
      0.63410192       0.99999881    2.5861867e-09
      0.63927169       0.99999879    2.6733577e-09
      0.64448361       0.99999877    2.7637007e-09
      0.64973802       0.99999875    2.8568197e-09
      0.65503527       0.99999873    2.9532572e-09
      0.66037571       0.99999871    3.0527141e-09
      0.66575969       0.99999869    3.1556664e-09
      0.67118757       0.99999867    3.2618945e-09
      0.67665969       0.99999864    3.3717679e-09
      0.68217644       0.99999862    3.4852098e-09
      0.68773815       0.99999860    3.6024924e-09
      0.69334522       0.99999858    3.7236570e-09
      0.69899799       0.99999855    3.8488476e-09
      0.70469686       0.99999853    3.9782348e-09
      0.71044218       0.99999851    4.1118176e-09
      0.71623435       0.99999848    4.2499873e-09
      0.72207374       0.99999846    4.3925806e-09
      0.72796073       0.99999843    4.5401413e-09
      0.73389573       0.99999840    4.6923165e-09
      0.73987911       0.99999838    4.8498742e-09
      0.74591127       0.99999835    5.0122668e-09
      0.75199261       0.99999832    5.1805070e-09
      0.75812354       0.99999830    5.3538115e-09
      0.76430445       0.99999827    5.5334261e-09
      0.77053575       0.99999824    5.7183305e-09
      0.77681785       0.99999821    5.9101040e-09
      0.78315117       0.99999818    6.1074268e-09
      0.78953613       0.99999815    6.3121986e-09
      0.79597314       0.99999812    6.5227591e-09
      0.80246263       0.99999809    6.7413837e-09
      0.80900503       0.99999806    6.9660502e-09
      0.81560077       0.99999803    7.1994324e-09
      0.82225028       0.99999800    7.4391257e-09
      0.82895401       0.99999796    7.6882769e-09
      0.83571239       0.99999793    7.9440204e-09
      0.84252588       0.99999790    8.2099393e-09
      0.84939491       0.99999786    8.4827101e-09
      0.85631994       0.99999783    8.7666269e-09
      0.86330144       0.99999779    9.0577392e-09
      0.87033985       0.99999775    9.3607541e-09
      0.87743565       0.99999772    9.6712346e-09
      0.88458929       0.99999768    9.9947325e-09
      0.89180126       0.99999764    1.0326037e-08
      0.89907203       0.99999760    1.0671247e-08
      0.90640208       0.99999756    1.1024552e-08
      0.91379189       0.99999752    1.1393029e-08
      0.92124195       0.99999748    1.1769966e-08
      0.92875274       0.99999744    1.2163186e-08
      0.93632477       0.99999740    1.2565186e-08
      0.94395854       0.99999735    1.2984966e-08
      0.95165454       0.99999731    1.3413897e-08
      0.95941329       0.99999727    1.3861713e-08
      0.96723529       0.99999722    1.4319014e-08
      0.97512107       0.99999718    1.4796993e-08
      0.98307114       0.99999713    1.5285057e-08
      0.99108602       0.99999708    1.5794818e-08
      0.99916625       0.99999703    1.6315612e-08
       1.0073124       0.99999699    1.6859394e-08
       1.0155249       0.99999694    1.7415251e-08
       1.0238044       0.99999688    1.7994955e-08
       1.0321513       0.99999683    1.8587891e-08
       1.0405664       0.99999678    1.9206272e-08
       1.0490500       0.99999673    1.9839105e-08
       1.0576028       0.99999667    2.0498452e-08
       1.0662253       0.99999662    2.1173577e-08
       1.0749182       0.99999656    2.1876639e-08
       1.0836819       0.99999651    2.2596968e-08
       1.0925170       0.99999645    2.3346713e-08
       1.1014242       0.99999639    2.4115348e-08
       1.1104040       0.99999633    2.4914846e-08
       1.1194570       0.99999627    2.5734879e-08
       1.1285839       0.99999621    2.6587123e-08
       1.1377851       0.99999615    2.7461778e-08
       1.1470613       0.99999608    2.8370465e-08
       1.1564132       0.99999602    2.9303578e-08
       1.1658413       0.99999595    3.0272430e-08
       1.1753463       0.99999588    3.1267829e-08
       1.1849288       0.99999581    3.2300578e-08
       1.1945894       0.99999575    3.3362299e-08
       1.2043288       0.99999567    3.4463450e-08
       1.2141476       0.99999560    3.5596024e-08
       1.2240464       0.99999553    3.6769734e-08
       1.2340259       0.99999545    3.7977749e-08
       1.2440868       0.99999537    3.9229123e-08
       1.2542298       0.99999529    4.0517624e-08
       1.2644554       0.99999521    4.1851465e-08
       1.2747644       0.99999513    4.3225637e-08
       1.2851574       0.99999506    4.4647317e-08
       1.2956351       0.99999498    4.6112915e-08
       1.3061983       0.99999490    4.7628466e-08
       1.3168476       0.99999482    4.9191442e-08
       1.3275838       0.99999473    5.0806446e-08
       1.3384074       0.99999465    5.2473200e-08
       1.3493193       0.99999456    5.4194846e-08
       1.3603202       0.99999447    5.5972253e-08
       1.3714108       0.99999438    5.7806799e-08
       1.3825918       0.99999429    5.9701981e-08
       1.3938639       0.99999419    6.1657102e-08
       1.4052279       0.99999410    6.3677878e-08
       1.4166846       0.99999400    6.5761346e-08
       1.4282347       0.99999390    6.7916079e-08
       1.4398790       0.99999380    7.0136638e-08
       1.4516182       0.99999370    7.2434301e-08
       1.4634531       0.99999360    7.4800590e-08
       1.4753845       0.99999349    7.7249765e-08
       1.4874131       0.99999338    7.9770365e-08
       1.4995399       0.99999327    8.2381424e-08
       1.5117655       0.99999316    8.5067514e-08
       1.5240907       0.99999305    8.7851528e-08
       1.5365165       0.99999294    9.0713835e-08
       1.5490436       0.99999282    9.3681019e-08
       1.5616728       0.99999270    9.6729763e-08
       1.5744049       0.99999258    9.9893141e-08
       1.5872409       0.99999246    1.0314210e-07
       1.6001815       0.99999233    1.0651384e-07
       1.6132277       0.99999221    1.0997452e-07
       1.6263801       0.99999208    1.1356806e-07
       1.6396399       0.99999195    1.1725442e-07
       1.6530077       0.99999182    1.2108506e-07
       1.6664845       0.99999168    1.2501265e-07
       1.6800712       0.99999154    1.2909517e-07
       1.6937687       0.99999140    1.3327845e-07
       1.7075778       0.99999126    1.3762903e-07
       1.7214995       0.99999112    1.4208458e-07
       1.7355347       0.99999097    1.4672142e-07
       1.7496844       0.99999082    1.5146778e-07
       1.7639494       0.99999067    1.5640844e-07
       1.7783307       0.99999052    1.6146308e-07
       1.7928292       0.99999036    1.6672729e-07
       1.8074460       0.99999020    1.7210980e-07
       1.8221819       0.99999004    1.7771917e-07
       1.8370380       0.99998987    1.8345181e-07
       1.8520152       0.99998971    1.8942963e-07
       1.8671145       0.99998954    1.9553549e-07
       1.8823369       0.99998936    2.0190517e-07
       1.8976834       0.99998919    2.0840827e-07
       1.9131550       0.99998901    2.1518620e-07
       1.9287528       0.99998883    2.2210739e-07
       1.9444777       0.99998864    2.2933651e-07
       1.9603309       0.99998846    2.3672154e-07
       1.9763133       0.99998827    2.4440840e-07
       1.9924260       0.99998807    2.5226610e-07
       2.0086700       0.99998788    2.6045307e-07
       2.0250465       0.99998768    2.6882589e-07
       2.0415565       0.99998747    2.7753963e-07
       2.0582011       0.99998727    2.8645701e-07
       2.0749815       0.99998705    2.9573826e-07
       2.0918986       0.99998684    3.0523953e-07
       2.1089536       0.99998662    3.1511261e-07
       2.1261477       0.99998640    3.2522628e-07
       2.1434820       0.99998618    3.3573578e-07
       2.1609576       0.99998595    3.4650763e-07
       2.1785757       0.99998572    3.5769617e-07
       2.1963374       0.99998548    3.6916972e-07
       2.2142439       0.99998524    3.8108021e-07
       2.2322964       0.99998500    3.9329828e-07
       2.2504961       0.99998475    4.0596809e-07
       2.2688442       0.99998450    4.1897432e-07
       2.2873419       0.99998424    4.3246093e-07
       2.3059904       0.99998398    4.4631170e-07
       2.3247909       0.99998372    4.6066376e-07
       2.3437447       0.99998345    4.7540865e-07
       2.3628530       0.99998318    4.9067338e-07
       2.3821171       0.99998290    5.0636865e-07
       2.4015383       0.99998262    5.2261719e-07
       2.4211178       0.99998233    5.3933081e-07
       2.4408569       0.99998204    5.5662132e-07
       2.4607570       0.99998174    5.7440967e-07
       2.4808193       0.99998144    5.9279417e-07
       2.5010452       0.99998113    6.1172450e-07
       2.5214360       0.99998082    6.3128750e-07
       2.5419930       0.99998050    6.5143665e-07
       2.5627176       0.99998018    6.7223970e-07
       2.5836112       0.99997985    6.9367925e-07
       2.6046751       0.99997952    7.1580728e-07
       2.6259108       0.99997918    7.3862551e-07
       2.6473196       0.99997884    7.6216439e-07
       2.6689029       0.99997849    7.8644466e-07
       2.6906622       0.99997814    8.1147422e-07
       2.7125989       0.99997778    8.3730838e-07
       2.7347145       0.99997741    8.6393051e-07
       2.7570104       0.99997704    8.9141509e-07
       2.7794880       0.99997666    9.1971499e-07
       2.8021489       0.99997627    9.4895088e-07
       2.8249946       0.99997588    9.7904401e-07
       2.8480265       0.99997549    1.0101451e-06
       2.8712461       0.99997508    1.0421400e-06
       2.8946551       0.99997467    1.0752235e-06
       2.9182550       0.99997425    1.1092399e-06
       2.9420472       0.99997383    1.1444187e-06
       2.9660335       0.99997340    1.1805672e-06
       2.9902152       0.99997296    1.2179814e-06
       3.0145942       0.99997252    1.2564123e-06
       3.0391719       0.99997207    1.2962042e-06
       3.0639499       0.99997161    1.3370534e-06
       3.0889300       0.99997114    1.3793670e-06
       3.1141138       0.99997066    1.4227827e-06
       3.1395029       0.99997018    1.4677514e-06
       3.1650989       0.99996969    1.5138609e-06
       3.1909037       0.99996919    1.5616536e-06
       3.2169188       0.99996869    1.6106377e-06
       3.2431460       0.99996818    1.6614343e-06
       3.2695871       0.99996765    1.7134714e-06
       3.2962437       0.99996712    1.7674380e-06
       3.3231177       0.99996658    1.8226929e-06
       3.3502107       0.99996604    1.8800213e-06
       3.3775247       0.99996548    1.9386927e-06
       3.4050613       0.99996491    1.9996139e-06
       3.4328224       0.99996434    2.0619343e-06
       3.4608099       0.99996376    2.1266398e-06
       3.4890255       0.99996316    2.1927947e-06
       3.5174712       0.99996256    2.2615312e-06
       3.5461488       0.99996195    2.3317761e-06
       3.5750602       0.99996133    2.4047544e-06
       3.6042074       0.99996070    2.4792973e-06
       3.6335921       0.99996006    2.5568024e-06
       3.6632164       0.99995941    2.6359342e-06
       3.6930823       0.99995875    2.7182216e-06
       3.7231916       0.99995807    2.8022124e-06
       3.7535465       0.99995739    2.8895635e-06
       3.7841488       0.99995670    2.9787454e-06
       3.8150006       0.99995600    3.0714157e-06
       3.8461039       0.99995528    3.1660740e-06
       3.8774608       0.99995456    3.2643905e-06
       3.9090734       0.99995382    3.3648641e-06
       3.9409437       0.99995307    3.4691675e-06
       3.9730738       0.99995231    3.5758000e-06
       4.0054659       0.99995154    3.6864308e-06
       4.0381221       0.99995076    3.7995830e-06
       4.0710445       0.99994996    3.9168989e-06
       4.1042353       0.99994915    4.0369345e-06
       4.1376967       0.99994834    4.1612895e-06
       4.1714310       0.99994750    4.2885917e-06
       4.2054403       0.99994666    4.4204723e-06
       4.2397268       0.99994580    4.5555451e-06
       4.2742929       0.99994493    4.6954223e-06
       4.3091408       0.99994405    4.8387199e-06
       4.3442728       0.99994316    4.9869496e-06
       4.3796912       0.99994225    5.1388336e-06
       4.4153984       0.99994133    5.2957595e-06
       4.4513967       0.99994039    5.4567101e-06
       4.4876885       0.99993945    5.6231739e-06
       4.5242762       0.99993848    5.7939155e-06
       4.5611622       0.99993751    5.9702791e-06
       4.5983489       0.99993652    6.1511964e-06
       4.6358388       0.99993551    6.3378693e-06
       4.6736344       0.99993450    6.5295345e-06
       4.7117381       0.99993347    6.7273932e-06
       4.7501524       0.99993242    6.9305464e-06
       4.7888799       0.99993136    7.1400237e-06
       4.8279232       0.99993029    7.3551702e-06
       4.8672848       0.99992920    7.5768904e-06
       4.9069673       0.99992810    7.8047252e-06
       4.9469733       0.99992698    8.0394491e-06
       4.9873055       0.99992585    8.2807081e-06
       5.0279666       0.99992470    8.5291186e-06
       5.0689591       0.99992354    8.7845798e-06
       5.1102858       0.99992237    9.0475361e-06
       5.1519495       0.99992118    9.3179403e-06
       5.1939528       0.99991998    9.5960449e-06
       5.2362986       0.99991877    9.8822344e-06
       5.2789897       0.99991754    1.0176552e-05
       5.3220288       0.99991630    1.0479387e-05
       5.3654187       0.99991504    1.0790546e-05
       5.4091625       0.99991378    1.1110734e-05
       5.4532629       0.99991250    1.1439538e-05
       5.4977228       0.99991121    1.1778158e-05
       5.5425452       0.99990990    1.2125861e-05
       5.5877330       0.99990859    1.2483945e-05
       5.6332893       0.99990727    1.2851386e-05
       5.6792169       0.99990594    1.3229907e-05
       5.7255190       0.99990460    1.3618168e-05
       5.7721986       0.99990326    1.4018202e-05
       5.8192588       0.99990191    1.4428323e-05
       5.8667027       0.99990056    1.4850923e-05
       5.9145333       0.99989921    1.5283969e-05
       5.9627539       0.99989786    1.5730282e-05
       6.0113677       0.99989652    1.6187439e-05
       6.0603778       0.99989519    1.6658654e-05
       6.1097875       0.99989387    1.7141081e-05
       6.1596000       0.99989258    1.7631359e-05
       6.2098186       0.99989130    1.8130809e-05
       6.2604467       0.99989009    1.8651168e-05
       6.3114875       0.99988888    1.9184998e-05
       6.3629444       0.99988781    1.9737002e-05
       6.4148209       0.99988676    2.0301846e-05
       6.4671203       0.99988597    2.0886139e-05
       6.5198461       0.99988523    2.1483794e-05
       6.5730018       0.99988517    2.2102171e-05
       6.6265908       0.99988523    2.2734387e-05
       6.6806168       0.99989384    2.3388957e-05
       6.7350832       0.99990390    2.4057923e-05
       6.7899937       0.99989774    7.3820637e-06
       6.8453519       0.99988009    7.6136565e-06
       6.9011614       0.99987521    7.8546809e-06
       6.9574259       0.99987130    8.1009889e-06
       7.0141491       0.99986809    8.3569342e-06
       7.0713348       0.99986485    8.6183293e-06
       7.1289867       0.99986188    8.8898477e-06
       7.1871086       0.99985886    9.1669987e-06
       7.2457044       0.99985596    9.4532894e-06
       7.3047779       0.99985301    9.7455195e-06
       7.3643331       0.99985012    1.0049821e-05
       7.4243738       0.99984718    1.0360567e-05
       7.4849040       0.99984426    1.0683983e-05
       7.5459277       0.99984130    1.1014414e-05
       7.6074489       0.99983834    1.1358059e-05
       7.6694717       0.99983533    1.1709361e-05
       7.7320001       0.99983231    1.2074645e-05
       7.7950384       0.99982924    1.2448245e-05
       7.8585906       0.99982615    1.2836484e-05
       7.9226609       0.99982301    1.3233724e-05
       7.9872536       0.99981985    1.3646084e-05
       8.0523729       0.99981663    1.4068270e-05
       8.1180231       0.99981338    1.4506567e-05
       8.1842086       0.99981008    1.4955379e-05
       8.2509337       0.99980674    1.5420387e-05
       8.3182027       0.99980335    1.5895684e-05
       8.3860202       0.99979992    1.6383816e-05
       8.4543906       0.99979643    1.6883931e-05
       8.5233185       0.99979290    1.7401098e-05
       8.5928082       0.99978931    1.7931321e-05
       8.6628646       0.99978566    1.8479801e-05
       8.7334921       0.99978196    1.9042573e-05
       8.8046954       0.99977821    1.9624953e-05
       8.8764792       0.99977440    2.0222631e-05
       8.9488483       0.99977053    2.0840436e-05
       9.0218074       0.99976660    2.1474855e-05
       9.0953613       0.99976261    2.2130520e-05
       9.1695149       0.99975856    2.2804318e-05
       9.2442731       0.99975445    2.3500614e-05
       9.3196408       0.99975027    2.4216351e-05
       9.3956229       0.99974603    2.4955394e-05
       9.4722245       0.99974173    2.5715483e-05
       9.5494506       0.99973736    2.6500050e-05
       9.6273064       0.99973292    2.7307047e-05
       9.7057969       0.99972841    2.8139245e-05
       9.7849273       0.99972384    2.8994384e-05
       9.8647029       0.99971919    2.9874238e-05
       9.9451288       0.99971448    3.0779126e-05
       10.026211       0.99970969    3.1710364e-05
       10.107953       0.99970482    3.2668572e-05
       10.190362       0.99969988    3.3654373e-05
       10.273443       0.99969486    3.4670200e-05
       10.357202       0.99968976    3.5715779e-05
       10.441643       0.99968458    3.6793789e-05
       10.526773       0.99967932    3.7902917e-05
       10.612597       0.99967398    3.9046997e-05
       10.699120       0.99966856    4.0223581e-05
       10.786349       0.99966305    4.1437694e-05
       10.874289       0.99965746    4.2685704e-05
       10.962946       0.99965178    4.3974354e-05
       11.052326       0.99964601    4.5298585e-05
       11.142434       0.99964015    4.6666527e-05
       11.233278       0.99963419    4.8071497e-05
       11.324861       0.99962814    4.9533269e-05
       11.417192       0.99962199    5.1038801e-05
       11.510275       0.99961577    5.2604681e-05
       11.604117       0.99960945    5.4215559e-05
       11.698725       0.99960304    5.5882859e-05
       11.794103       0.99959654    5.7593422e-05
       11.890259       0.99958996    5.9358455e-05
       11.987199       0.99958327    6.1166107e-05
       12.084930       0.99957649    6.3032180e-05
       12.183457       0.99956960    6.4942794e-05
       12.282788       0.99956262    6.6932810e-05
       12.382928       0.99955553    6.8974037e-05
       12.483885       0.99954835    7.1091821e-05
       12.585665       0.99954106    7.3260642e-05
       12.688275       0.99953369    7.5512004e-05
       12.791721       0.99952620    7.7816449e-05
       12.896010       0.99951864    8.0208411e-05
       13.001150       0.99951096    8.2655346e-05
       13.107148       0.99950321    8.5184066e-05
       13.214009       0.99949535    8.7768060e-05
       13.321741       0.99948742    9.0436508e-05
       13.430352       0.99947937    9.3162027e-05
       13.539849       0.99947122    9.5925860e-05
       13.650238       0.99946295    9.8743736e-05
       13.761527       0.99945457    0.00010164591
       13.873723       0.99944607    0.00010460745
       13.986834       0.99943745    0.00010765772
       14.100868       0.99942869    0.00011076979
       14.215831       0.99941980    0.00011399980
       14.331731       0.99941077    0.00011729695
       14.448576       0.99940161    0.00012075328
       14.566374       0.99939230    0.00012428443
       14.685132       0.99938292    0.00012798902
       14.804859       0.99937339    0.00013177646
       14.925561       0.99936381    0.00013574549
       15.047248       0.99935409    0.00013980214
       15.169927       0.99934433    0.00014401170
       15.293606       0.99933442    0.00014831632
       15.418293       0.99932450    0.00015278142
       15.543997       0.99931444    0.00015734170
       15.670725       0.99930435    0.00016202424
       15.798487       0.99929413    0.00016680639
       15.927291       0.99928387    0.00017171177
       16.057145       0.99927347    0.00017672139
       16.188057       0.99926300    0.00018185590
       16.320037       0.99925239    0.00018710894
       16.453092       0.99924171    0.00019252492
       16.587233       0.99923090    0.00019807186
       16.722467       0.99922005    0.00020380152
       16.858803       0.99920907    0.00020967209
       16.996252       0.99919807    0.00021573367
       17.134820       0.99918697    0.00022194926
       17.274519       0.99917587    0.00022836976
       17.415356       0.99916471    0.00023491161
       17.557342       0.99915361    0.00024156906
       17.700486       0.99914239    0.00024833972
       17.844796       0.99913107    0.00025520800
       17.990283       0.99911960    0.00026228543
       18.136956       0.99910800    0.00026963310
       18.284825       0.99909631    0.00027726379
       18.433899       0.99908458    0.00028526493
       18.584189       0.99907294    0.00029361589
       18.735704       0.99906149    0.00030240828
       18.888454       0.99905020    0.00031145242
       19.042450       0.99903916    0.00032077636
       19.197701       0.99902837    0.00033031361
       19.354218       0.99901789    0.00034007290
       19.512011       0.99900766    0.00035001963
       19.671091       0.99899772    0.00036015656
       19.831467       0.99898809    0.00037051523
       19.993151       0.99897876    0.00038109891
       20.156154       0.99896992    0.00039198361
       20.320485       0.99896153    0.00040316513
       20.486156       0.99895388    0.00041467573
       20.653177       0.99894685    0.00042650104
       20.821561       0.99894097    0.00043867881
       20.991317       0.99893595    0.00045118459
       21.162457       0.99893272    0.00046403511
       21.334993       0.99893072    0.00047720435
       21.508935       0.99893167    0.00049075243
       21.684295       0.99893447    0.00050463937
       21.861085       0.99894286    0.00051904100
       22.039316       0.99895448    0.00053385746
       22.219001       0.99897988    0.00054915594
       22.400150       0.99901250    0.00056484910
       22.582776       0.99918706    0.00058104524
       22.766892       0.99942706    0.00059764604
       22.952508       0.99940845    0.00017734430
       23.139637       0.99907799    0.00018246807
       23.328293       0.99894678    0.00018776220
       23.518486       0.99888294    0.00019318502
       23.710230       0.99883368    0.00019879145
       23.903537       0.99878814    0.00020453217
       24.098420       0.99874831    0.00021046962
       24.294892       0.99870940    0.00021654676
       24.492966       0.99867346    0.00022283429
       24.692655       0.99863765    0.00022926696
       24.893972       0.99860361    0.00023592467
       25.096930       0.99856937    0.00024273317
       25.301543       0.99853624    0.00024978349
       25.507824       0.99850277    0.00025699073
       25.715787       0.99847003    0.00026445716
       25.925445       0.99843686    0.00027208649
       26.136813       0.99840418    0.00027999330
       26.349904       0.99837101    0.00028806908
       26.564732       0.99833822    0.00029644181
       26.781312       0.99830490    0.00030499009
       26.999657       0.99827173    0.00031362473
       27.219783       0.99823801    0.00032242730
       27.441703       0.99820429    0.00033153452
       27.665432       0.99817000    0.00034082545
       27.890986       0.99813560    0.00035045315
       28.118378       0.99810061    0.00036027733
       28.347625       0.99806550    0.00037045323
       28.578740       0.99802981    0.00038084088
       28.811740       0.99799392    0.00039159550
       29.046639       0.99795745    0.00040257823
       29.283454       0.99792073    0.00041394409
       29.522199       0.99788342    0.00042555568
       29.762891       0.99784583    0.00043756774
       30.005545       0.99780765    0.00044984422
       30.250177       0.99776915    0.00046254145
       30.496804       0.99773006    0.00047552316
       30.745441       0.99769062    0.00048894051
       30.996106       0.99765059    0.00050266382
       31.248814       0.99761020    0.00051684302
       31.503583       0.99756921    0.00053135048
       31.760428       0.99752785    0.00054633238
       32.019368       0.99748590    0.00056166299
       32.280419       0.99744357    0.00057747613
       32.543598       0.99740066    0.00059366551
       32.808923       0.99735739    0.00061036544
       33.076411       0.99731356    0.00062747229
       33.346079       0.99726947    0.00064511942
       33.617947       0.99722496    0.00066304862
       33.892031       0.99718046    0.00068117391
       34.168349       0.99713517    0.00069941867
       34.446920       0.99708901    0.00071752130
       34.727763       0.99704208    0.00073605719
       35.010895       0.99699437    0.00075510744
       35.296335       0.99694591    0.00077461948
       35.584103       0.99689668    0.00079466737
       35.874217       0.99684673    0.00081520723
       36.166696       0.99679608    0.00083630449
       36.461559       0.99674471    0.00085792635
       36.758827       0.99669263    0.00088012829
       37.058518       0.99663982    0.00090288967
       37.360653       0.99658628    0.00092625495
       37.665250       0.99653202    0.00095021476
       37.972331       0.99647703    0.00097480122
       38.281916       0.99642131     0.0010000234
       38.594025       0.99636485     0.0010259004
       38.908678       0.99630766     0.0010524533
       39.225897       0.99624973     0.0010796853
       39.545702       0.99619107     0.0011076366
       39.868114       0.99613166     0.0011362936
       40.193155       0.99607156     0.0011657169
       40.520846       0.99601071     0.0011958745
       40.851209       0.99594927     0.0012268503
       41.184265       0.99588713     0.0012585917
       41.520036       0.99582435     0.0012908789
       41.858545       0.99576078     0.0013237465
       42.199813       0.99569642     0.0013572622
       42.543864       0.99563117     0.0013914315
       42.890720       0.99556498     0.0014265281
       43.240404       0.99549779     0.0014624404
       43.592939       0.99542982     0.0014993365
       43.948348       0.99536091     0.0015370803
       44.306655       0.99529126     0.0015758534
       44.667883       0.99522066     0.0016154987
       45.032056       0.99514933     0.0016562238
       45.399198       0.99507703     0.0016978506
       45.769333       0.99500402     0.0017406271
       46.142486       0.99493001     0.0017843404
       46.518681       0.99485534     0.0018292997
       46.897943       0.99477966     0.0018752390
       47.280298       0.99470340     0.0019225025
       47.665769       0.99462610     0.0019707834
       48.054384       0.99454830     0.0020204700
       48.446167       0.99446946     0.0020712125
       48.841143       0.99439070     0.0021234427
       49.239341       0.99431097     0.0021767677
       49.640784       0.99423108     0.0022310713
       50.045501       0.99415013     0.0022864100
       50.453517       0.99406855     0.0023416809
       50.864859       0.99398581     0.0023978762
       51.279556       0.99390133     0.0024556754
       51.697633       0.99381554     0.0025146163
       52.119119       0.99372878     0.0025762930
       52.544041       0.99364074     0.0026392355
       52.972427       0.99355320     0.0027043806
       53.404306       0.99346442     0.0027707990
       53.839707       0.99337580     0.0028392655
       54.278657       0.99328595     0.0029090611
       54.721185       0.99319755     0.0029809968
       55.167322       0.99310803     0.0030543457
       55.617096       0.99302047     0.0031299213
       56.070536       0.99293175     0.0032064639
       56.527674       0.99284289     0.0032778629
       56.988539       0.99275261     0.0033506343
       57.453161       0.99265933     0.0034252366
       57.921571       0.99256467     0.0035012997
       58.393800       0.99246821     0.0035793761
       58.869879       0.99237037     0.0036590026
       59.349839       0.99227105     0.0037407417
       59.833713       0.99217030     0.0038241219
       60.321531       0.99206804     0.0039096855
       60.813327       0.99196419     0.0039973328
       61.309132       0.99185831     0.0040887682
       61.808979       0.99175149     0.0041824883
       62.312902       0.99164530     0.0042801176
       62.820933       0.99153812     0.0043798249
       63.333106       0.99143111     0.0044821976
       63.849455       0.99132320     0.0045867746
       64.370013       0.99121549     0.0046941189
       64.894816       0.99110689     0.0048038129
       65.423897       0.99099832     0.0049164099
       65.957292       0.99088878     0.0050306901
       66.495035       0.99077889     0.0051461309
       67.037163       0.99066884     0.0052640813
       67.583710       0.99055998     0.0053849495
       68.134713       0.99044274     0.0055016072
       68.690209       0.99031120     0.0056085932
       69.250234       0.99016587     0.0057380669
       69.814824       0.98999876     0.0059039013
       70.384018       0.98984619     0.0061022125
       70.957852       0.98971704     0.0063481423
       71.536364       0.98963231     0.0066041169
       72.119593       0.98960919     0.0068720426
       72.707578       0.98961732     0.0070949060
       73.300355       0.98966435     0.0072600957
       73.897966       0.98970432     0.0073918337
       74.500449       0.98973598     0.0074851477
       75.107844       0.98974445     0.0075733477
       75.720191       0.98972896     0.0076562386
       76.337530       0.98970285     0.0077082681
       76.959903       0.98966681     0.0077312557
       77.587350       0.98958686     0.0077668033
       78.219912       0.98946930     0.0078130500
       78.857631       0.98930706     0.0078752936
       79.500550       0.98910963     0.0079500209
       80.148710       0.98898560     0.0081497201
       80.802155       0.98891247     0.0084381559
       81.460927       0.98885154     0.0085831759
       82.125070       0.98879833     0.0086379980
       82.794628       0.98870901     0.0087471989
       83.469644       0.98859875     0.0088881471
       84.150164       0.98851539     0.0090056508
       84.836232       0.98844559     0.0091119444
       85.527894       0.98833714     0.0091964034
       86.225195       0.98821028     0.0092712733
       86.928180       0.98807964     0.0094017738
       87.636897       0.98794647     0.0095562444
       88.351392       0.98778058     0.0096990725
       89.071713       0.98760121     0.0098390916
       89.797906       0.98741140      0.010037157
       90.530020       0.98721620      0.010256227
       91.268102       0.98709261      0.010604248
       92.012202       0.98698798      0.010993355
       92.762369       0.98707028      0.011291591
       93.518651       0.98720020      0.011572546
       94.281100       0.98730579      0.011705421
       95.049764       0.98740992      0.011809729
       95.824696       0.98740792      0.011889192
       96.605945       0.98738941      0.011964778
       97.393564       0.98734564      0.012074775
       98.187605       0.98729897      0.012190408
       98.988119       0.98727190      0.012333036
       99.795159       0.98724780      0.012480153
       100.60878       0.98727499      0.012626204
       101.42903       0.98730826      0.012773948
       102.25597       0.98734726      0.012853960
       103.08966       0.98738906      0.012931014
       103.93014       0.98750297      0.012990215
       104.77747       0.98762262      0.013048015
       105.63171       0.98770872      0.012923305
       106.49292       0.98779248      0.012792077
       107.36114       0.98767109      0.012596511
       108.23645       0.98754380      0.012404314
       109.11889       0.98733110      0.012387718
       110.00852       0.98711991      0.012368248
       110.90541       0.98696750      0.012336666
       111.80961       0.98681022      0.012302760
       112.72119       0.98662474      0.012267386
       113.64019       0.98643545      0.012234764
       114.56669       0.98623599      0.012237195
       115.50074       0.98602937      0.012223758
       116.44241       0.98579591      0.012125538
       117.39175       0.98553250      0.012038958
       118.34883       0.98513756      0.012024944
       119.31372       0.98474810      0.012104954
       120.28647       0.98440571      0.012582157
       121.26716       0.98426328      0.013088576
       122.25584       0.98485919      0.013674310
       123.25258       0.98647222      0.014280008
       124.25744       0.99062105      0.011033126
       125.27050       0.98618782     0.0088477748
       126.29182       0.98460675     0.0090400686
       127.32147       0.98321897     0.0092339941
       128.35951       0.98236298     0.0094268066
       129.40601       0.98155281     0.0096236115
       130.46104       0.98086634     0.0098250673
       131.52468       0.98019918      0.010030745
       132.59699       0.97958424      0.010241264
       133.67804       0.97897812      0.010456229
       134.76790       0.97839740      0.010676193
       135.86665       0.97782109      0.010901873
       136.97436       0.97725883      0.011134398
       138.09110       0.97669910      0.011372448
       139.21694       0.97614795      0.011616692
       140.35196       0.97559706      0.011866212
       141.49624       0.97504978      0.012121353
       142.64984       0.97450133      0.012382058
       143.81285       0.97395343      0.012648597
       144.98535       0.97340015      0.012920986
       146.16740       0.97284180      0.013199411
       147.35909       0.97228026      0.013489816
       148.56049       0.97171538      0.013792308
       149.77169       0.97115115      0.014102029
       150.99277       0.97058646      0.014418936
       152.22379       0.97001790      0.014743103
       153.46486       0.96944426      0.015074401
       154.71604       0.96886229      0.015413327
       155.97743       0.96827139      0.015759626
       157.24910       0.96767986      0.016128483
       158.53114       0.96708449      0.016514958
       159.82362       0.96649061      0.016912120
       161.12665       0.96589362      0.017318828
       162.44030       0.96530273      0.017736649
       163.76466       0.96471067      0.018164236
       165.09982       0.96412528      0.018596900
       166.44586       0.96353824      0.019036278
       167.80288       0.96294595      0.019478163
       169.17096       0.96234588      0.019925839
       170.55019       0.96174176      0.020384728
       171.94067       0.96113005      0.020853306
       173.34249       0.96052018      0.021333722
       174.75573       0.95990453      0.021824182
       176.18050       0.95929260      0.022316175
       177.61688       0.95867504      0.022815039
       179.06498       0.95804907      0.023317406
       180.52487       0.95741360      0.023827559
       181.99668       0.95677143      0.024350249
       183.48048       0.95611992      0.024883272
       184.97638       0.95546443      0.025429528
       186.48447       0.95479988      0.025986495
       188.00486       0.95413488      0.026557382
       189.53765       0.95346112      0.027139365
       191.08293       0.95278621      0.027722933
       192.64081       0.95210210      0.028316079
       194.21139       0.95140676      0.028923443
       195.79478       0.95070069      0.029542233
       197.39107       0.94998844      0.030177064
       199.00038       0.94926561      0.030823826
       200.62281       0.94853762      0.031487540
       202.25847       0.94779878      0.032163611
       203.90747       0.94705458      0.032857452
       205.56990       0.94629922      0.033564172
       207.24590       0.94553674      0.034291208
       208.93555       0.94476310      0.035032327
       210.63898       0.94398783      0.035806638
       212.35630       0.94320206      0.036595624
       214.08762       0.94242230      0.037404792
       215.83306       0.94163235      0.038229445
       217.59272       0.94084553      0.039075092
       219.36674       0.94004889      0.039937088
       221.15521       0.93925463      0.040820944
       222.95827       0.93845106      0.041722045
       224.77603       0.93765022      0.042645739
       226.60860       0.93684071      0.043587630
       228.45612       0.93603478      0.044552991
       230.31870       0.93522078      0.045537566
       232.19647       0.93441038      0.046546564
       234.08954       0.93359324      0.047576938
       235.99805       0.93278252      0.048637046
       237.92212       0.93196737      0.049719208
       239.86188       0.93116374      0.050829654
       241.81745       0.93035848      0.051962859
       243.78896       0.92956967      0.053123556
       245.77655       0.92878325      0.054308250
       247.78034       0.92801989      0.055521463
       249.80047       0.92727260      0.056759996
       251.83707       0.92657619      0.058028126
       253.89028       0.92589475      0.059278967
       255.96022       0.92525347      0.060466664
       258.04704       0.92458499      0.061655636
       260.15087       0.92386966      0.062827947
       262.27186       0.92313919      0.064022126
       264.41013       0.92238789      0.065239500
       266.56584       0.92162730      0.066479263
       268.73913       0.92085666      0.067742384
       270.93013       0.92007895      0.069028316
       273.13900       0.91929467      0.070337734
       275.36588       0.91850519      0.071671832
       277.61091       0.91771138      0.073031524
       279.87424       0.91691454      0.074416903
       282.15603       0.91611548      0.075828690
       284.45642       0.91531534      0.077267296
       286.77557       0.91451454      0.078733283
       289.11362       0.91371495      0.080227218
       291.47073       0.91291621      0.081749468
       293.84707       0.91212107      0.083300800
       296.24277       0.91132809      0.084881384
       298.65801       0.91054168      0.086492420
       301.09294       0.90975898      0.088133827
       303.54772       0.90898629      0.089806781
       306.02252       0.90821889      0.091510997
       308.51749       0.90746914      0.093248288
       311.03281       0.90672882      0.095018060
       313.56863       0.90600876      0.096816617
       316.12512       0.90529860      0.098645351
       318.70246       0.90461093       0.10050607
       321.30081       0.90393327       0.10239929
       323.92034       0.90328971       0.10432943
       326.56123       0.90266090       0.10629506
       329.22366       0.90208519       0.10829931
       331.90778       0.90153154       0.11034033
       334.61380       0.90106869       0.11242146
       337.34187       0.90064139       0.11454056
       340.09219       0.90046496       0.11660680
       342.86492       0.90037842       0.11867916
       345.66027       0.90016898       0.12042012
       348.47840       0.89992955       0.12208353
       351.31951       0.89957205       0.12376894
       354.18379       0.89918826       0.12547872
       357.07142       0.89873914       0.12721102
       359.98258       0.89827788       0.12896846
       362.91749       0.89777942       0.13074896
       365.87632       0.89727542       0.13255536
       368.85927       0.89674460       0.13438542
       371.86655       0.89621051       0.13624219
       374.89834       0.89565554       0.13812323
       377.95485       0.89509839       0.14003185
       381.03628       0.89452462       0.14196523
       384.14283       0.89394937       0.14392704
       387.27471       0.89335715       0.14591421
       390.43212       0.89276365       0.14793069
       393.61528       0.89216102       0.14998790
       396.82438       0.89155768       0.15207613
       400.05966       0.89095382       0.15419778
       403.32130       0.89034979       0.15635108
       406.60954       0.88975330       0.15853242
       409.92459       0.88915699       0.16074618
       413.26667       0.88856403       0.16298879
       419.986      0.839000      0.180000
       430.038      0.833000      0.190000
       439.957      0.827000      0.202000
       450.018      0.822000      0.218000
       460.037      0.817000      0.233000
       469.977      0.813000      0.250000
       479.985      0.808000      0.270000
       490.040      0.804000      0.282000
       495.920      0.733000      0.325000
       499.919      0.803000      0.300000
       509.996      0.804000      0.322000
       516.583      0.753000      0.375000
       520.050      0.806000      0.343000
       530.056      0.811000      0.366000
       539.043      0.774000      0.434000
       539.983      0.817000      0.385000
       550.044      0.822000      0.408000
       559.982      0.829000      0.430000
       563.545      0.797000      0.480000
       570.023      0.833000      0.450000
       579.888      0.843000      0.470000
       590.100      0.851000      0.482000
       590.381      0.827000      0.530000
       600.097      0.862000      0.497000
       619.900      0.859000      0.585000
       635.795      0.879000      0.613000
       652.526      0.902000      0.645000
       670.162      0.927000      0.677000
       688.778      0.957000      0.712000
       698.479      0.975000      0.731000
       708.457      0.999000      0.750000
       718.725       1.03000      0.763000
       729.294       1.07200      0.768000
       740.179       1.12400      0.765000
       751.394       1.13700      0.755000
       762.954       1.15600      0.737000
       774.875       1.17200      0.717000
       787.175       1.17800      0.703000
       799.871       1.17200      0.696000
       812.984       1.16700      0.699000
       826.533       1.16800      0.711000
       840.542       1.17500      0.739000
       855.034       1.19500      0.771000
       870.035       1.22500      0.799000
       885.571       1.26500      0.808000
       901.673       1.32000      0.795000
       918.370       1.36300      0.775000
       935.698       1.37100      0.755000
       953.692       1.36800      0.747000
       972.392       1.37200      0.766000
       991.840       1.38300      0.793000
       1012.08       1.41000      0.824000
       1033.17       1.47500      0.861000
       1050.68       1.55400      0.874000
       1068.79       1.63500      0.859000
       1087.54       1.71600      0.810000
       1106.96       1.76600      0.718000
       1127.09       1.73900      0.569000
       1137.43       1.68700      0.565000
       1147.96       1.58700      0.618000
       1158.69       1.51300      0.725000
       1169.62       1.49200      0.914000
       1180.76       1.56700       1.11000
       1186.41       1.64500       1.13600
       1192.12       1.77200       1.13000
       1197.87       1.91900       1.04500
       1203.69       2.04800      0.925000
       1209.56       2.15200      0.810000
       1215.49       2.24000      0.715000
       1227.52       2.33200      0.460000
       1239.80       2.33000      0.323000
       1252.32       2.29200      0.236000
       1265.10       2.24300      0.168000
       1278.14       2.19000      0.119000
       1291.46       2.14000     0.0770000
       1305.05       2.09200     0.0561000
       1318.94       2.04700     0.0430000
       1333.12       2.00600     0.0339000
       1347.61       1.96900     0.0271000
       1362.42       1.93500     0.0228000
       1377.56       1.90400     0.0189000
       1393.03       1.87600     0.0156000
       1408.86       1.85000     0.0132000
       1425.06       1.82500     0.0109000
       1441.63       1.80300    0.00838000
       1458.59       1.78300    0.00557000
       1475.95       1.76400    0.00317000
       1493.73       1.74700    0.00140000
       1511.95       1.73000   0.000463000
       1530.62       1.71600   0.000122000
       1549.75       1.70200   3.20000e-05
       1589.49       1.67600   4.70000e-06
       1631.32       1.65300       0.00000
       1675.41       1.63300       0.00000
       1721.94       1.61600       0.00000
       1771.14       1.60000       0.00000
       1836.74       1.58200       0.00000
       1907.38       1.56700       0.00000
       1983.68       1.55400       0.00000
       2066.33       1.54300       0.00000
       2138.47       1.53429       0.00000
       2144.28       1.53371       0.00000
       2267.37       1.52276       0.00000
       2301.98       1.52009       0.00000
       2378.24       1.51474       0.00000
       2399.27       1.51338       0.00000
       2482.63       1.50841       0.00000
       2651.92       1.50004       0.00000
       2698.74       1.49805       0.00000
       2752.66       1.49592       0.00000
       2803.33       1.49404       0.00000
       2893.48       1.49099       0.00000
       2967.16       1.48873       0.00000
       3021.40       1.48719       0.00000
       3302.43       1.48053       0.00000
       3341.33       1.47976       0.00000
       3403.52       1.47858       0.00000
       3466.03       1.47746       0.00000
       3610.37       1.47512       0.00000
       3650.01       1.47453       0.00000
       4046.34       1.46961       0.00000
       4358.13       1.46669       0.00000
       4677.96       1.46429       0.00000
       4861.20       1.46313       0.00000
       5085.52       1.46187       0.00000
       5460.47       1.46008       0.00000
       5769.46       1.45885       0.00000
       5790.48       1.45877       0.00000
       5875.27       1.45847       0.00000
       5892.31       1.45841       0.00000
       6438.18       1.45671       0.00000
       6562.57       1.45637       0.00000
       6677.80       1.45608       0.00000
       7064.79       1.45515       0.00000
       8520.96       1.45248       0.00000
       8943.23       1.45185       0.00000
       10139.0       1.45025       0.00000
       10828.9       1.44941       0.00000
       11286.3       1.44888       0.00000
       13621.5       1.44621       0.00000
       13950.1       1.44584       0.00000
       14694.4       1.44497       0.00000
       15294.7       1.44427       0.00000
       16605.3       1.44267       0.00000
       16808.6       1.44241       0.00000
       16931.4       1.44226       0.00000
       17090.6       1.44205       0.00000
       18130.0       1.44069       0.00000
       19700.0       1.43851       0.00000
       20580.0       1.43722       0.00000
       21525.1       1.43576       0.00000
       23253.4       1.43292       0.00000
       24372.9       1.43095       0.00000
       32437.7       1.41314       0.00000
       32666.7       1.41253       0.00000
       33024.3       1.41155       0.00000
       34220.3       1.40819       0.00000
       35068.2       1.40568       0.00000
       35562.1       1.40418       0.00000
       37065.4       1.39936       0.00000
       38455.3       1.39500       0.00000
       41659.9       1.38300       0.00000
       45447.2       1.36500       0.00000
       49991.9       1.34200       0.00000
       55546.6       1.30600       0.00000
       58814.0       1.27800       0.00000
       62489.9       1.23900       0.00000
       64505.7       1.21200       0.00000
       66655.9       1.17500       0.00000
       67564.0       1.15800       0.00000
       68497.2       1.13500       0.00000
       69456.6       1.10700       0.00000
       70403.2       1.08400       0.00000
       71417.0       1.05300       0.00000
       72460.5       1.01400       0.00000
       73535.0      0.970200       0.00000
       74062.1      0.948800       0.00000
       74641.8      0.917500       0.00000
       75185.0      0.889700       0.00000
       75736.1      0.860000       0.00000
       76342.4      0.821300       0.00000
       76910.7      0.771900     0.0372000
       77536.0      0.703700     0.0474000
       78122.2      0.623200     0.0768000
       78717.5      0.545600      0.132000
       79372.6      0.467700      0.216000
       79987.1      0.411300      0.323000
       80663.6      0.393100      0.446000
       81298.4      0.402000      0.553000
       81943.2      0.432900      0.635000
       82653.3      0.453000      0.704000
       83319.9      0.460000      0.771000
       84054.2      0.473000      0.840000
       84743.7      0.474600      0.903000
       85444.5      0.465600      0.978000
       86217.0      0.456300       1.07000
       86942.5      0.430900       1.17000
       87742.4      0.391500       1.32000
       88493.9      0.356300       1.53000
       89258.5      0.370500       1.85000
       90101.7      0.584600       2.27000
       90894.4       1.04300       2.55000
       91769.1       1.61600       2.63000
       93008.2       2.25000       2.26000
       95222.7       2.76000       1.65000
       97545.2       2.83900      0.962000
       99983.9       2.69400      0.509000
       102548.       2.44800      0.231000
       105246.       2.22400      0.102000
       108091.       2.03800     0.0460000
       111093.       1.86900     0.0506000
       113639.       1.78400     0.0775000
       116304.       1.69000      0.116000
       117628.       1.65200      0.152000
       119097.       1.61900      0.204000
       120486.       1.61500      0.267000
       121908.       1.65800      0.323000
       123486.       1.70100      0.341000
       125000.       1.753        0.343
       126600.       1.789        0.314
       128200.       1.811        0.275
       129900.       1.810        0.227
       131600.       1.779        0.192
       133300.       1.756        0.177
       137900.       1.698        0.157
       142900.       1.643        0.157
       148100.       1.598        0.168
       153800.       1.555        0.182
       160000.       1.502        0.202
       166700.       1.450        0.235
       172400.       1.401        0.264
       178600.       1.337        0.298
       185200.       1.235        0.341
       189700.       1.161        0.377
       192300.       1.050        0.415
       196100.       0.8857       0.524
       200000.       0.6616       0.822
       204100.       0.5777       1.28
       208300.       0.7517       1.86
       210500.       1.002        2.22
       212800.       1.484        2.39
       217400.       2.308        2.29
       227300.       2.936        1.29
       238100.       2.912        0.738
       250000.       2.739        0.397
       266700.       2.537        0.199
