;  Optical constants for GaAs
;  
;  Concatenation of:
;  
;  GaAs_llnl_cxro + GaAs_windt + GaAs_palik
;   
;    Lambda (A)            n            k
;-----------------------------------------
      0.12398000       0.99999990    2.0155299e-10
      0.12499080       0.99999990    2.0825768e-10
      0.12600983       0.99999990    2.1519385e-10
      0.12703718       0.99999990    2.2236393e-10
      0.12807290       0.99999990    2.2975116e-10
      0.12911707       0.99999989    2.3740105e-10
      0.13016975       0.99999989    2.4527879e-10
      0.13123101       0.99999989    2.5343038e-10
      0.13230092       0.99999989    2.6185354e-10
      0.13337956       0.99999989    2.7054791e-10
      0.13446699       0.99999989    2.7959322e-10
      0.13556329       0.99999988    2.8883921e-10
      0.13666852       0.99999988    2.9849853e-10
      0.13778277       0.99999988    3.0836113e-10
      0.13890610       0.99999988    3.1861790e-10
      0.14003858       0.99999988    3.2920232e-10
      0.14118030       0.99999987    3.4012950e-10
      0.14233133       0.99999987    3.5146168e-10
      0.14349175       0.99999987    3.6306968e-10
      0.14466162       0.99999987    3.7518768e-10
      0.14584103       0.99999987    3.8755500e-10
      0.14703006       0.99999986    4.0045798e-10
      0.14822878       0.99999986    4.1375742e-10
      0.14943728       0.99999986    4.2745701e-10
      0.15065563       0.99999986    4.4164588e-10
      0.15188391       0.99999985    4.5632767e-10
      0.15312220       0.99999985    4.7148069e-10
      0.15437059       0.99999985    4.8715001e-10
      0.15562916       0.99999985    5.0328520e-10
      0.15689799       0.99999984    5.1992820e-10
      0.15817716       0.99999984    5.3712003e-10
      0.15946677       0.99999984    5.5488273e-10
      0.16076688       0.99999984    5.7320761e-10
      0.16207760       0.99999983    5.9225471e-10
      0.16339900       0.99999983    6.1176138e-10
      0.16473118       0.99999983    6.3200123e-10
      0.16607422       0.99999983    6.5288748e-10
      0.16742821       0.99999982    6.7439065e-10
      0.16879323       0.99999982    6.9660550e-10
      0.17016939       0.99999982    7.1957227e-10
      0.17155676       0.99999981    7.4333823e-10
      0.17295545       0.99999981    7.6787796e-10
      0.17436554       0.99999981    7.9313598e-10
      0.17578712       0.99999980    8.1936195e-10
      0.17722030       0.99999980    8.4626404e-10
      0.17866516       0.99999980    8.7420768e-10
      0.18012180       0.99999979    9.0291541e-10
      0.18159031       0.99999979    9.3265358e-10
      0.18307080       0.99999979    9.6327351e-10
      0.18456336       0.99999978    9.9495462e-10
      0.18606809       0.99999978    1.0277334e-09
      0.18758508       0.99999978    1.0615426e-09
      0.18911444       0.99999977    1.0965056e-09
      0.19065628       0.99999977    1.1324459e-09
      0.19221068       0.99999977    1.1697930e-09
      0.19377775       0.99999976    1.2079760e-09
      0.19535760       0.99999976    1.2478161e-09
      0.19695034       0.99999975    1.2885544e-09
      0.19855605       0.99999975    1.3308776e-09
      0.20017486       0.99999975    1.3746279e-09
      0.20180687       0.99999974    1.4195985e-09
      0.20345218       0.99999974    1.4662179e-09
      0.20511091       0.99999973    1.5144256e-09
      0.20678315       0.99999973    1.5639108e-09
      0.20846904       0.99999972    1.6151534e-09
      0.21016867       0.99999972    1.6682750e-09
      0.21188215       0.99999971    1.7224884e-09
      0.21360961       0.99999971    1.7788467e-09
      0.21535114       0.99999971    1.8370430e-09
      0.21710688       0.99999970    1.8973310e-09
      0.21887693       0.99999970    1.9593577e-09
      0.22066141       0.99999969    2.0234819e-09
      0.22246045       0.99999969    2.0898523e-09
      0.22427414       0.99999968    2.1582284e-09
      0.22610263       0.99999968    2.2286080e-09
      0.22794602       0.99999967    2.3014449e-09
      0.22980444       0.99999966    2.3759446e-09
      0.23167802       0.99999966    2.4533303e-09
      0.23356687       0.99999965    2.5333448e-09
      0.23547111       0.99999965    2.6159491e-09
      0.23739089       0.99999964    2.7012203e-09
      0.23932631       0.99999964    2.7892394e-09
      0.24127752       0.99999963    2.8800818e-09
      0.24324463       0.99999962    2.9738398e-09
      0.24522778       0.99999962    3.0707807e-09
      0.24722710       0.99999961    3.1709418e-09
      0.24924272       0.99999960    3.2740595e-09
      0.25127477       0.99999960    3.3803125e-09
      0.25332339       0.99999959    3.4899311e-09
      0.25538871       0.99999959    3.6031935e-09
      0.25747087       0.99999958    3.7203150e-09
      0.25957000       0.99999957    3.8410776e-09
      0.26168625       0.99999956    3.9655996e-09
      0.26381975       0.99999956    4.0940134e-09
      0.26597065       0.99999955    4.2270464e-09
      0.26813908       0.99999954    4.3642785e-09
      0.27032520       0.99999953    4.5059555e-09
      0.27252913       0.99999953    4.6522503e-09
      0.27475103       0.99999952    4.8031022e-09
      0.27699105       0.99999951    4.9587803e-09
      0.27924933       0.99999950    5.1186806e-09
      0.28152603       0.99999950    5.2845076e-09
      0.28382128       0.99999949    5.4551298e-09
      0.28613525       0.99999948    5.6320993e-09
      0.28846808       0.99999947    5.8129237e-09
      0.29081993       0.99999946    6.0013488e-09
      0.29319096       0.99999945    6.1938213e-09
      0.29558132       0.99999944    6.3950287e-09
      0.29799117       0.99999943    6.6003530e-09
      0.30042066       0.99999943    6.8136141e-09
      0.30286996       0.99999942    7.0329590e-09
      0.30533923       0.99999941    7.2603076e-09
      0.30782863       0.99999940    7.4947513e-09
      0.31033833       0.99999939    7.7347245e-09
      0.31286848       0.99999938    7.9838149e-09
      0.31541927       0.99999937    8.2407441e-09
      0.31799085       0.99999936    8.5049323e-09
      0.32058340       0.99999934    8.7792630e-09
      0.32319709       0.99999933    9.0615105e-09
      0.32583208       0.99999932    9.3524380e-09
      0.32848856       0.99999931    9.6528917e-09
      0.33116670       0.99999930    9.9613719e-09
      0.33386667       0.99999929    1.0280835e-08
      0.33658865       0.99999928    1.0610246e-08
      0.33933282       0.99999927    1.0949202e-08
      0.34209937       0.99999925    1.1300748e-08
      0.34488847       0.99999924    1.1661852e-08
      0.34770032       0.99999923    1.2035202e-08
      0.35053508       0.99999922    1.2420849e-08
      0.35339296       0.99999920    1.2818833e-08
      0.35627414       0.99999919    1.3228307e-08
      0.35917881       0.99999918    1.3649640e-08
      0.36210716       0.99999916    1.4086076e-08
      0.36505938       0.99999915    1.4535057e-08
      0.36803568       0.99999914    1.4999183e-08
      0.37103624       0.99999912    1.5476743e-08
      0.37406126       0.99999911    1.5971753e-08
      0.37711095       0.99999909    1.6480548e-08
      0.38018549       0.99999908    1.7003549e-08
      0.38328511       0.99999906    1.7544820e-08
      0.38641000       0.99999905    1.8104259e-08
      0.38956036       0.99999903    1.8679472e-08
      0.39273641       0.99999902    1.9273603e-08
      0.39593835       0.99999900    1.9886297e-08
      0.39916640       0.99999898    2.0519278e-08
      0.40242076       0.99999897    2.1169554e-08
      0.40570166       0.99999895    2.1844589e-08
      0.40900931       0.99999893    2.2627462e-08
      0.41234392       0.99999891    2.3598229e-08
      0.41570572       0.99999890    2.4421026e-08
      0.41909493       0.99999888    2.5195942e-08
      0.42251177       0.99999886    2.5999417e-08
      0.42595647       0.99999884    2.6823585e-08
      0.42942925       0.99999882    2.7678518e-08
      0.43293034       0.99999880    2.8554991e-08
      0.43645998       0.99999878    2.9464549e-08
      0.44001840       0.99999876    3.0396552e-08
      0.44360583       0.99999874    3.1364284e-08
      0.44722250       0.99999872    3.2355400e-08
      0.45086866       0.99999870    3.3384845e-08
      0.45454455       0.99999868    3.4438627e-08
      0.45825041       0.99999866    3.5533646e-08
      0.46198648       0.99999863    3.6653993e-08
      0.46575301       0.99999861    3.7818808e-08
      0.46955025       0.99999859    3.9009916e-08
      0.47337845       0.99999857    4.0248836e-08
      0.47723786       0.99999854    4.1515120e-08
      0.48112873       0.99999852    4.2832668e-08
      0.48505133       0.99999849    4.4178622e-08
      0.48900590       0.99999847    4.5579728e-08
      0.49299272       0.99999844    4.7010296e-08
      0.49701204       0.99999842    4.8500101e-08
      0.50106413       0.99999839    5.0020932e-08
      0.50514926       0.99999837    5.1604550e-08
      0.50926770       0.99999834    5.3221568e-08
      0.51341971       0.99999831    5.4904571e-08
      0.51760557       0.99999829    5.6623940e-08
      0.52182555       0.99999826    5.8412235e-08
      0.52607995       0.99999823    6.0240060e-08
      0.53036903       0.99999820    6.2139977e-08
      0.53469307       0.99999817    6.4082848e-08
      0.53905238       0.99999814    6.6101416e-08
      0.54344722       0.99999811    6.8166586e-08
      0.54787789       0.99999808    7.0310895e-08
      0.55234469       0.99999805    7.2505762e-08
      0.55684790       0.99999802    7.4783737e-08
      0.56138783       0.99999798    7.7116412e-08
      0.56596477       0.99999795    7.9535596e-08
      0.57057902       0.99999792    8.2014125e-08
      0.57523090       0.99999788    8.4583317e-08
      0.57992070       0.99999785    8.7216660e-08
      0.58464874       0.99999781    8.9945044e-08
      0.58941532       0.99999778    9.2742921e-08
      0.59422077       0.99999774    9.5640093e-08
      0.59906539       0.99999771    9.8612373e-08
      0.60394951       0.99999767    1.0168831e-07
      0.60887346       0.99999763    1.0484539e-07
      0.61383754       0.99999759    1.0811094e-07
      0.61884210       0.99999755    1.1146413e-07
      0.62388746       0.99999751    1.1493057e-07
      0.62897395       0.99999747    1.1849134e-07
      0.63410192       0.99999743    1.2216974e-07
      0.63927169       0.99999739    1.2595042e-07
      0.64448361       0.99999735    1.2985486e-07
      0.64973802       0.99999731    1.3386931e-07
      0.65503527       0.99999726    1.3801236e-07
      0.66037571       0.99999722    1.4227382e-07
      0.66575969       0.99999717    1.4666998e-07
      0.67118757       0.99999713    1.5119340e-07
      0.67665969       0.99999708    1.5585669e-07
      0.68217644       0.99999703    1.6065718e-07
      0.68773815       0.99999699    1.6560422e-07
      0.69334522       0.99999694    1.7069902e-07
      0.69899799       0.99999689    1.7594665e-07
      0.70469686       0.99999684    1.8135214e-07
      0.71044218       0.99999679    1.8691588e-07
      0.71623435       0.99999674    1.9265017e-07
      0.72207374       0.99999668    1.9855028e-07
      0.72796073       0.99999663    2.0463368e-07
      0.73389573       0.99999658    2.1088967e-07
      0.73987911       0.99999652    2.1734144e-07
      0.74591127       0.99999647    2.2397260e-07
      0.75199261       0.99999641    2.3081437e-07
      0.75812354       0.99999635    2.3784327e-07
      0.76430445       0.99999630    2.4509646e-07
      0.77053575       0.99999624    2.5254393e-07
      0.77681785       0.99999618    2.6023341e-07
      0.78315117       0.99999612    2.6812604e-07
      0.78953613       0.99999606    2.7627735e-07
      0.79597314       0.99999600    2.8463923e-07
      0.80246263       0.99999593    2.9327768e-07
      0.80900503       0.99999587    3.0213486e-07
      0.81560077       0.99999580    3.1128732e-07
      0.82225028       0.99999574    3.2066726e-07
      0.82895401       0.99999567    3.3036365e-07
      0.83571239       0.99999561    3.4029660e-07
      0.84252588       0.99999554    3.5056547e-07
      0.84939491       0.99999547    3.6107917e-07
      0.85631994       0.99999540    3.7195538e-07
      0.86330144       0.99999533    3.8308733e-07
      0.87033985       0.99999526    3.9460140e-07
      0.87743565       0.99999519    4.0637999e-07
      0.88458929       0.99999511    4.1856990e-07
      0.89180126       0.99999504    4.3103516e-07
      0.89907203       0.99999497    4.4393431e-07
      0.90640208       0.99999489    4.5711833e-07
      0.91379189       0.99999482    4.7076965e-07
      0.92124195       0.99999474    4.8471775e-07
      0.92875274       0.99999466    4.9915658e-07
      0.93632477       0.99999459    5.1390228e-07
      0.94395854       0.99999451    5.2917639e-07
      0.95165454       0.99999443    5.4476960e-07
      0.95941329       0.99999435    5.6091527e-07
      0.96723529       0.99999428    5.7739128e-07
      0.97512107       0.99999420    5.9446270e-07
      0.98307114       0.99999412    6.1188190e-07
      0.99108602       0.99999405    6.2991581e-07
      0.99916625       0.99999398    6.4832318e-07
       1.0073124       0.99999391    6.6737438e-07
       1.0155249       0.99999384    6.8682616e-07
       1.0238044       0.99999380    7.0693634e-07
       1.0321513       0.99999380    7.2747858e-07
       1.0405664       0.99999424    7.4873418e-07
       1.0490500       0.99999372    4.0093813e-07
       1.0576028       0.99999353    4.1287942e-07
       1.0662253       0.99999333    4.2508732e-07
       1.0749182       0.99999320    4.3771055e-07
       1.0836819       0.99999307    4.5062063e-07
       1.0925170       0.99999295    4.6396371e-07
       1.1014242       0.99999282    4.7761487e-07
       1.1104040       0.99999271    4.9171441e-07
       1.1194570       0.99999259    5.0614332e-07
       1.1285839       0.99999248    5.2103628e-07
       1.1377851       0.99999237    5.3628152e-07
       1.1470613       0.99999226    5.5200924e-07
       1.1564132       0.99999216    5.6811462e-07
       1.1658413       0.99999207    5.8472326e-07
       1.1753463       0.99999200    6.0173429e-07
       1.1849288       0.99999200    6.1926397e-07
       1.1945894       0.99999258    6.3721206e-07
       1.2043288       0.99999211    1.6952447e-07
       1.2141476       0.99999148    1.7490887e-07
       1.2240464       0.99999127    1.8047717e-07
       1.2340259       0.99999107    1.8620142e-07
       1.2440868       0.99999088    1.9211944e-07
       1.2542298       0.99999070    1.9820454e-07
       1.2644554       0.99999052    2.0449041e-07
       1.2747644       0.99999034    2.1095812e-07
       1.2851574       0.99999016    2.1763774e-07
       1.2956351       0.99998998    2.2451400e-07
       1.3061983       0.99998979    2.3161198e-07
       1.3168476       0.99998961    2.3892278e-07
       1.3275838       0.99998942    2.4646589e-07
       1.3384074       0.99998923    2.5423734e-07
       1.3493193       0.99998904    2.6225010e-07
       1.3603202       0.99998885    2.7050932e-07
       1.3714108       0.99998865    2.7902096e-07
       1.3825918       0.99998845    2.8779921e-07
       1.3938639       0.99998825    2.9684157e-07
       1.4052279       0.99998804    3.0617209e-07
       1.4166846       0.99998784    3.1577901e-07
       1.4282347       0.99998763    3.2569589e-07
       1.4398790       0.99998741    3.3590134e-07
       1.4516182       0.99998719    3.4644363e-07
       1.4634531       0.99998697    3.5728834e-07
       1.4753845       0.99998675    3.6849010e-07
       1.4874131       0.99998652    3.8000379e-07
       1.4995399       0.99998629    3.9190703e-07
       1.5117655       0.99998605    4.0413831e-07
       1.5240907       0.99998582    4.1679025e-07
       1.5365165       0.99998557    4.2978434e-07
       1.5490436       0.99998533    4.4323014e-07
       1.5616728       0.99998508    4.5703332e-07
       1.5744049       0.99998482    4.7132165e-07
       1.5872409       0.99998456    4.8598157e-07
       1.6001815       0.99998430    5.0116279e-07
       1.6132277       0.99998404    5.1673110e-07
       1.6263801       0.99998376    5.3286509e-07
       1.6396399       0.99998349    5.4940388e-07
       1.6530077       0.99998321    5.6654801e-07
       1.6664845       0.99998292    5.8411246e-07
       1.6800712       0.99998263    6.0232795e-07
       1.6937687       0.99998234    6.2098078e-07
       1.7075778       0.99998204    6.4033750e-07
       1.7214995       0.99998174    6.6015007e-07
       1.7355347       0.99998143    6.8071527e-07
       1.7496844       0.99998112    7.0175421e-07
       1.7639494       0.99998080    7.2361185e-07
       1.7783307       0.99998047    7.4596455e-07
       1.7928292       0.99998014    7.6917339e-07
       1.8074460       0.99997981    7.9289270e-07
       1.8221819       0.99997947    8.1756090e-07
       1.8370380       0.99997912    8.4276306e-07
       1.8520152       0.99997877    8.6896491e-07
       1.8671145       0.99997841    8.9571953e-07
       1.8823369       0.99997805    9.2356364e-07
       1.8976834       0.99997768    9.5198421e-07
       1.9131550       0.99997730    9.8157612e-07
       1.9287528       0.99997692    1.0117837e-06
       1.9444777       0.99997653    1.0431868e-06
       1.9603309       0.99997614    1.0752592e-06
       1.9763133       0.99997574    1.1086068e-06
       1.9924260       0.99997533    1.1426819e-06
       2.0086700       0.99997491    1.1780921e-06
       2.0250465       0.99997449    1.2142889e-06
       2.0415565       0.99997406    1.2518605e-06
       2.0582011       0.99997363    1.2902937e-06
       2.0749815       0.99997319    1.3302244e-06
       2.0918986       0.99997274    1.3710823e-06
       2.1089536       0.99997228    1.4134646e-06
       2.1261477       0.99997181    1.4568552e-06
       2.1434820       0.99997134    1.5018576e-06
       2.1609576       0.99997086    1.5479503e-06
       2.1785757       0.99997037    1.5957175e-06
       2.1963374       0.99996987    1.6446732e-06
       2.2142439       0.99996937    1.6954156e-06
       2.2322964       0.99996885    1.7474305e-06
       2.2504961       0.99996833    1.8012709e-06
       2.2688442       0.99996780    1.8564990e-06
       2.2873419       0.99996726    1.9136699e-06
       2.3059904       0.99996671    1.9723335e-06
       2.3247909       0.99996615    2.0330116e-06
       2.3437447       0.99996559    2.0953232e-06
       2.3628530       0.99996501    2.1597857e-06
       2.3821171       0.99996443    2.2259851e-06
       2.4015383       0.99996383    2.2943711e-06
       2.4211178       0.99996322    2.3646483e-06
       2.4408569       0.99996261    2.4372450e-06
       2.4607570       0.99996198    2.5118791e-06
       2.4808193       0.99996135    2.5889383e-06
       2.5010452       0.99996070    2.6682015e-06
       2.5214360       0.99996004    2.7499995e-06
       2.5419930       0.99995937    2.8341718e-06
       2.5627176       0.99995869    2.9209812e-06
       2.5836112       0.99995800    3.0103606e-06
       2.6046751       0.99995730    3.1025117e-06
       2.6259108       0.99995659    3.1974395e-06
       2.6473196       0.99995586    3.2952624e-06
       2.6689029       0.99995513    3.3960612e-06
       2.6906622       0.99995438    3.4998684e-06
       2.7125989       0.99995361    3.6068827e-06
       2.7347145       0.99995284    3.7170446e-06
       2.7570104       0.99995205    3.8306633e-06
       2.7794880       0.99995125    3.9475592e-06
       2.8021489       0.99995044    4.0681972e-06
       2.8249946       0.99994961    4.1922770e-06
       2.8480265       0.99994877    4.3203648e-06
       2.8712461       0.99994792    4.4520295e-06
       2.8946551       0.99994705    4.5880056e-06
       2.9182550       0.99994617    4.7277079e-06
       2.9420472       0.99994527    4.8720582e-06
       2.9660335       0.99994436    5.0203086e-06
       2.9902152       0.99994343    5.1735568e-06
       3.0145942       0.99994249    5.3308634e-06
       3.0391719       0.99994154    5.4935376e-06
       3.0639499       0.99994056    5.6604329e-06
       3.0889300       0.99993958    5.8330948e-06
       3.1141138       0.99993857    6.0101546e-06
       3.1395029       0.99993755    6.1934242e-06
       3.1650989       0.99993651    6.3812832e-06
       3.1909037       0.99993546    6.5757986e-06
       3.2169188       0.99993439    6.7750829e-06
       3.2431460       0.99993330    6.9815254e-06
       3.2695871       0.99993220    7.1929318e-06
       3.2962437       0.99993107    7.4120618e-06
       3.3231177       0.99992993    7.6363738e-06
       3.3502107       0.99992877    7.8688341e-06
       3.3775247       0.99992759    8.1066642e-06
       3.4050613       0.99992639    8.3533809e-06
       3.4328224       0.99992518    8.6057000e-06
       3.4608099       0.99992394    8.8675055e-06
       3.4890255       0.99992268    9.1351241e-06
       3.5174712       0.99992141    9.4129072e-06
       3.5461488       0.99992011    9.6967277e-06
       3.5750602       0.99991879    9.9914401e-06
       3.6042074       0.99991746    1.0292425e-05
       3.6335921       0.99991610    1.0605091e-05
       3.6632164       0.99991472    1.0924270e-05
       3.6930823       0.99991332    1.1255947e-05
       3.7231916       0.99991189    1.1594446e-05
       3.7535465       0.99991044    1.1946228e-05
       3.7841488       0.99990897    1.2305337e-05
       3.8150006       0.99990748    1.2678301e-05
       3.8461039       0.99990597    1.3059209e-05
       3.8774608       0.99990443    1.3454570e-05
       3.9090734       0.99990287    1.3858542e-05
       3.9409437       0.99990128    1.4277670e-05
       3.9730738       0.99989967    1.4706112e-05
       4.0054659       0.99989803    1.5150560e-05
       4.0381221       0.99989637    1.5605019e-05
       4.0710445       0.99989469    1.6075670e-05
       4.1042353       0.99989297    1.6557263e-05
       4.1376967       0.99989123    1.7056577e-05
       4.1714310       0.99988947    1.7567588e-05
       4.2054403       0.99988768    1.8096516e-05
       4.2397268       0.99988586    1.8638150e-05
       4.2742929       0.99988402    1.9198820e-05
       4.3091408       0.99988215    1.9773008e-05
       4.3442728       0.99988025    2.0366427e-05
       4.3796912       0.99987832    2.0974854e-05
       4.4153984       0.99987636    2.1604718e-05
       4.4513967       0.99987438    2.2250248e-05
       4.4876885       0.99987236    2.2916677e-05
       4.5242762       0.99987032    2.3600283e-05
       4.5611622       0.99986825    2.4306585e-05
       4.5983489       0.99986615    2.5031153e-05
       4.6358388       0.99986402    2.5778893e-05
       4.6736344       0.99986185    2.6546517e-05
       4.7117381       0.99985966    2.7338783e-05
       4.7501524       0.99985744    2.8152299e-05
       4.7888799       0.99985519    2.8991264e-05
       4.8279232       0.99985290    2.9853148e-05
       4.8672848       0.99985059    3.0741725e-05
       4.9069673       0.99984824    3.1654797e-05
       4.9469733       0.99984586    3.2595482e-05
       4.9873055       0.99984345    3.3562347e-05
       5.0279666       0.99984101    3.4557871e-05
       5.0689591       0.99983853    3.5581745e-05
       5.1102858       0.99983603    3.6635775e-05
       5.1519495       0.99983349    3.7719978e-05
       5.1939528       0.99983092    3.8835391e-05
       5.2362986       0.99982832    3.9983146e-05
       5.2789897       0.99982568    4.1163417e-05
       5.3220288       0.99982301    4.2378729e-05
       5.3654187       0.99982031    4.3628198e-05
       5.4091625       0.99981758    4.4914529e-05
       5.4532629       0.99981482    4.6235938e-05
       5.4977228       0.99981202    4.7597108e-05
       5.5425452       0.99980920    4.8995004e-05
       5.5877330       0.99980634    5.0435229e-05
       5.6332893       0.99980345    5.1913454e-05
       5.6792169       0.99980053    5.3437714e-05
       5.7255190       0.99979757    5.5002025e-05
       5.7721986       0.99979460    5.6613984e-05
       5.8192588       0.99979158    5.8266688e-05
       5.8667027       0.99978855    5.9971499e-05
       5.9145333       0.99978548    6.1719286e-05
       5.9627539       0.99978239    6.3522601e-05
       6.0113677       0.99977926    6.5370553e-05
       6.0603778       0.99977613    6.7275938e-05
       6.1097875       0.99977296    6.9226892e-05
       6.1596000       0.99976977    7.1213016e-05
       6.2098186       0.99976654    7.3237443e-05
       6.2604467       0.99976329    7.5344805e-05
       6.3114875       0.99975999    7.7506236e-05
       6.3629444       0.99975670    7.9741474e-05
       6.4148209       0.99975336    8.2028783e-05
       6.4671203       0.99975003    8.4395299e-05
       6.5198461       0.99974666    8.6816054e-05
       6.5730018       0.99974330    8.9320936e-05
       6.6265908       0.99973990    9.1881938e-05
       6.6806168       0.99973652    9.4533702e-05
       6.7350832       0.99973310    9.7243849e-05
       6.7899937       0.99972972    0.00010005133
       6.8453519       0.99972630    0.00010291955
       6.9011614       0.99972293    0.00010589101
       6.9574259       0.99971953    0.00010892541
       7.0141491       0.99971621    0.00011205763
       7.0713348       0.99971285    0.00011525419
       7.1289867       0.99970959    0.00011855018
       7.1871086       0.99970629    0.00012191251
       7.2457044       0.99970309    0.00012534024
       7.3047779       0.99969986    0.00012883696
       7.3643331       0.99969673    0.00013245932
       7.4243738       0.99969358    0.00013615587
       7.4849040       0.99969059    0.00013998320
       7.5459277       0.99968758    0.00014389047
       7.6074489       0.99968479    0.00014793442
       7.6694717       0.99968201    0.00015206456
       7.7320001       0.99967953    0.00015633728
       7.7950384       0.99967710    0.00016070270
       7.8585906       0.99967515    0.00016521757
       7.9226609       0.99967338    0.00016983203
       7.9872536       0.99967273    0.00017460174
       8.0523729       0.99967461    0.00017947740
       8.1180231       0.99968937    0.00018450886
       8.1842086       0.99966889    0.00017672709
       8.2509337       0.99966449    0.00018156759
       8.3182027       0.99966043    0.00018652019
       8.3860202       0.99965782    0.00019163309
       8.4543906       0.99965544    0.00019686565
       8.5233185       0.99965381    0.00020226359
       8.5928082       0.99965245    0.00020779019
       8.6628646       0.99965188    0.00021349041
       8.7334921       0.99965172    0.00021932757
       8.8046954       0.99965256    0.00022534311
       8.8764792       0.99965410    0.00023150565
       8.9488483       0.99965715    0.00023785464
       9.0218074       0.99966161    0.00024436110
       9.0953613       0.99966883    0.00025106185
       9.1695149       0.99968054    0.00025793170
       9.2442731       0.99970037    0.00026500428
       9.3196408       0.99978170    0.00027225260
       9.3956229       0.99982733    0.00015826348
       9.4722245       0.99971667    0.00016274663
       9.5494506       0.99970934    0.00015205938
       9.6273064       0.99967186    0.00015548468
       9.7057969       0.99965702    0.00015898636
       9.7849273       0.99964444    0.00016256644
       9.8647029       0.99963476    0.00016622921
       9.9451288       0.99962613    0.00016997543
       10.026211       0.99961870    0.00017380835
       10.107953       0.99961207    0.00017773240
       10.190362       0.99960627    0.00018174950
       10.273443       0.99960130    0.00018585911
       10.357202       0.99959711    0.00019006141
       10.441643       0.99959401    0.00019436174
       10.526773       0.99959185    0.00019875848
       10.612597       0.99959153    0.00020325747
       10.699120       0.99959264    0.00020785550
       10.786349       0.99959795    0.00021256229
       10.874289       0.99960627    0.00021737257
       10.962946       0.99964275    0.00022229735
       11.052326       0.99969748    0.00022732939
       11.142434       0.99979940    6.9804949e-05
       11.233278       0.99964450    7.1708907e-05
       11.324861       0.99957398    7.3668922e-05
       11.417192       0.99954599    7.5676799e-05
       11.510275       0.99952349    7.7745109e-05
       11.604117       0.99950323    7.9863392e-05
       11.698725       0.99948509    8.2046475e-05
       11.794103       0.99946758    8.4281768e-05
       11.890259       0.99945115    8.6578614e-05
       11.987199       0.99943491    8.8926738e-05
       12.084930       0.99941930    9.1340632e-05
       12.183457       0.99940368    9.3808093e-05
       12.282788       0.99938845    9.6382124e-05
       12.382928       0.99937311    9.9022533e-05
       12.483885       0.99935803    0.00010175198
       12.585665       0.99934280    0.00010454386
       12.688275       0.99932773    0.00010743097
       12.791721       0.99931247    0.00011038287
       12.896010       0.99929730    0.00011343250
       13.001150       0.99928192    0.00011654865
       13.107148       0.99926657    0.00011976703
       13.214009       0.99925098    0.00012305420
       13.321741       0.99923539    0.00012644978
       13.430352       0.99921955    0.00012991672
       13.539849       0.99920367    0.00013348994
       13.650238       0.99918752    0.00013713612
       13.761527       0.99917129    0.00014090748
       13.873723       0.99915479    0.00014475560
       13.986834       0.99913819    0.00014873708
       14.100868       0.99912130    0.00015279846
       14.215831       0.99910429    0.00015700277
       14.331731       0.99908699    0.00016129135
       14.448576       0.99906954    0.00016571768
       14.566374       0.99905179    0.00017023402
       14.685132       0.99903385    0.00017489225
       14.804859       0.99901560    0.00017964654
       14.925561       0.99899709    0.00018455062
       15.047248       0.99897826    0.00018956419
       15.169927       0.99895913    0.00019479577
       15.293606       0.99893968    0.00020017974
       15.418293       0.99892002    0.00020602081
       15.543997       0.99890006    0.00021199478
       15.670725       0.99888001    0.00021818159
       15.798487       0.99885965    0.00022450625
       15.927291       0.99883912    0.00023102628
       16.057145       0.99881827    0.00023769212
       16.188057       0.99879721    0.00024455538
       16.320037       0.99877581    0.00025157973
       16.453092       0.99875418    0.00025883194
       16.587233       0.99873221    0.00026626058
       16.722467       0.99871000    0.00027393749
       16.858803       0.99868745    0.00028180442
       16.996252       0.99866466    0.00028993083
       17.134820       0.99864155    0.00029826301
       17.274519       0.99861821    0.00030686833
       17.415356       0.99859456    0.00031566298
       17.557342       0.99857070    0.00032467157
       17.700486       0.99854649    0.00033386217
       17.844796       0.99852198    0.00034324179
       17.990283       0.99849712    0.00035288245
       18.136956       0.99847195    0.00036284770
       18.284825       0.99844649    0.00037304431
       18.433899       0.99842081    0.00038349680
       18.584189       0.99839478    0.00039407668
       18.735704       0.99836841    0.00040475093
       18.888454       0.99834164    0.00041570333
       19.042450       0.99831447    0.00042696052
       19.197701       0.99828694    0.00043846713
       19.354218       0.99825908    0.00045023299
       19.512011       0.99823082    0.00046223080
       19.671091       0.99820216    0.00047446488
       19.831467       0.99817306    0.00048696427
       19.993151       0.99814351    0.00049973282
       20.156154       0.99811352    0.00051283638
       20.320485       0.99808306    0.00052627173
       20.486156       0.99805217    0.00054006943
       20.653177       0.99802083    0.00055421676
       20.821561       0.99798905    0.00056874929
       20.991317       0.99795683    0.00058364506
       21.162457       0.99792417    0.00059895921
       21.334993       0.99789105    0.00061465624
       21.508935       0.99785751    0.00063080516
       21.684295       0.99782350    0.00064735575
       21.861085       0.99778913    0.00066441433
       22.039316       0.99775430    0.00068190510
       22.219001       0.99771915    0.00069984837
       22.400150       0.99768356    0.00071819480
       22.582776       0.99764758    0.00073694573
       22.766892       0.99761110    0.00075608141
       22.952508       0.99757425    0.00077577181
       23.139637       0.99753689    0.00079591500
       23.328293       0.99749935    0.00081657576
       23.518486       0.99746136    0.00083768007
       23.710230       0.99742300    0.00085883181
       23.903537       0.99738411    0.00088028284
       24.098420       0.99734448    0.00090228920
       24.294892       0.99730421    0.00092475511
       24.492966       0.99726339    0.00094784640
       24.692655       0.99722196    0.00097142382
       24.893972       0.99718002    0.00099567877
       25.096930       0.99713746     0.0010204410
       25.301543       0.99709442     0.0010459265
       25.507824       0.99705075     0.0010719392
       25.715787       0.99700664     0.0010987196
       25.925445       0.99696187     0.0011260466
       26.136813       0.99691669     0.0011541900
       26.349904       0.99687085     0.0011828996
       26.564732       0.99682467     0.0012124571
       26.781312       0.99677780     0.0012426004
       26.999657       0.99673063     0.0012735822
       27.219783       0.99668275     0.0013051676
       27.441703       0.99663455     0.0013375803
       27.665432       0.99658562     0.0013706187
       27.890986       0.99653639     0.0014044894
       28.118378       0.99648641     0.0014390199
       28.347625       0.99643599     0.0014745354
       28.578740       0.99638484     0.0015107523
       28.811740       0.99633337     0.0015480124
       29.046639       0.99628116     0.0015860207
       29.283454       0.99622868     0.0016251488
       29.522199       0.99617548     0.0016650722
       29.762891       0.99612211     0.0017061479
       30.005545       0.99606805     0.0017480698
       30.250177       0.99601393     0.0017912008
       30.496804       0.99595920     0.0018352282
       30.745441       0.99590466     0.0018804843
       30.996106       0.99584967     0.0019266060
       31.248814       0.99579548     0.0019736089
       31.503583       0.99574069     0.0020210434
       31.760428       0.99568581     0.0020675531
       32.019368       0.99562999     0.0021149150
       32.280419       0.99557283     0.0021631008
       32.543598       0.99551482     0.0022122330
       32.808923       0.99545594     0.0022624235
       33.076411       0.99539628     0.0023136614
       33.346079       0.99533593     0.0023661485
       33.617947       0.99527484     0.0024197457
       33.892031       0.99521317     0.0024746526
       34.168349       0.99515081     0.0025307264
       34.446920       0.99508794     0.0025881462
       34.727763       0.99502442     0.0026467922
       35.010895       0.99496042     0.0027068238
       35.296335       0.99489580     0.0027681591
       35.584103       0.99483074     0.0028309517
       35.874217       0.99476511     0.0028951149
       36.166696       0.99469911     0.0029607820
       36.461559       0.99463262     0.0030279011
       36.758827       0.99456581     0.0030965884
       37.058518       0.99449861     0.0031667899
       37.360653       0.99443114     0.0032385941
       37.665250       0.99436338     0.0033120078
       37.972331       0.99429545     0.0033871002
       38.281916       0.99422743     0.0034639109
       38.594025       0.99415938     0.0035424857
       38.908678       0.99409193     0.0036228508
       39.225897       0.99402503     0.0037050207
       39.545702       0.99395920     0.0037881747
       39.868114       0.99389419     0.0038724006
       40.193155       0.99382860     0.0039554911
       40.520846       0.99376236     0.0040379977
       40.851209       0.99369471     0.0041222723
       41.184265       0.99362581     0.0042082672
       41.520036       0.99355635     0.0042961190
       41.858545       0.99348622     0.0043857553
       42.199813       0.99341588     0.0044773160
       42.543864       0.99334506     0.0045707099
       42.890720       0.99327442     0.0046661573
       43.240404       0.99320348     0.0047635231
       43.592939       0.99313317     0.0048628749
       43.948348       0.99306274     0.0049641324
       44.306655       0.99299344     0.0050664777
       44.667883       0.99292418     0.0051703596
       45.032056       0.99285597     0.0052746081
       45.399198       0.99278770     0.0053801676
       45.769333       0.99271796     0.0054863478
       46.142486       0.99264723     0.0055940024
       46.518681       0.99257619     0.0057038685
       46.897943       0.99250452     0.0058157687
       47.280298       0.99243315     0.0059299849
       47.665769       0.99236130     0.0060463078
       48.054384       0.99229028     0.0061650485
       48.446167       0.99221887     0.0062859691
       48.841143       0.99215011     0.0064094600
       49.239341       0.99208128     0.0065352160
       49.640784       0.99201597     0.0066600587
       50.045501       0.99195070     0.0067866429
       50.453517       0.99188323     0.0069115225
       50.864859       0.99181499     0.0070381215
       51.279556       0.99174578     0.0071671279
       51.697633       0.99167593     0.0072983771
       52.119119       0.99160635     0.0074321987
       52.544041       0.99153622     0.0075683450
       52.972427       0.99146703     0.0077071750
       53.404306       0.99139731     0.0078484087
       53.839707       0.99132920     0.0079923960
       54.278657       0.99126063     0.0081388747
       54.721185       0.99119436     0.0082881880
       55.167322       0.99112779     0.0084400919
       55.617096       0.99106435     0.0085949533
       56.070536       0.99100092     0.0087525121
       56.527674       0.99094235     0.0089131526
       56.988539       0.99088448     0.0090762302
       57.453161       0.99083564     0.0092387928
       57.921571       0.99078760     0.0094035521
       58.393800       0.99074560     0.0095666874
       58.869879       0.99070384     0.0097290804
       59.349839       0.99066247     0.0098725321
       59.833713       0.99061953      0.010018180
       60.321531       0.99056759      0.010165961
       60.813327       0.99051486      0.010316001
       61.309132       0.99045879      0.010468237
       61.808979       0.99040205      0.010622817
       62.312902       0.99034306      0.010779742
       62.820933       0.99028322      0.010939621
       63.333106       0.99022102      0.011103691
       63.849455       0.99015907      0.011271072
       64.370013       0.99009828      0.011443219
       64.894816       0.99003941      0.011620240
       65.423897       0.98998576      0.011805572
       65.957292       0.98993447      0.011988715
       66.495035       0.98988862      0.012163027
       67.037163       0.98984139      0.012339968
       67.583710       0.98979111      0.012519530
       68.134713       0.98974179      0.012701804
       68.690209       0.98969412      0.012886798
       69.250234       0.98964765      0.013071088
       69.814824       0.98960307      0.013252339
       70.384018       0.98955698      0.013435573
       70.957852       0.98950848      0.013620461
       71.536364       0.98945980      0.013807967
       72.119593       0.98941081      0.013998085
       72.707578       0.98936231      0.014190861
       73.300355       0.98931439      0.014386298
       73.897966       0.98926796      0.014584475
       74.500449       0.98922320      0.014785415
       75.107844       0.98918004      0.014986564
       75.720191       0.98913853      0.015187876
       76.337530       0.98909626      0.015391401
       76.959903       0.98905332      0.015597226
       77.587350       0.98901130      0.015805809
       78.219912       0.98897016      0.016017228
       78.857631       0.98893062      0.016231539
       79.500550       0.98889245      0.016448831
       80.148710       0.98885669      0.016669057
       80.802155       0.98882282      0.016892334
       81.460927       0.98879273      0.017118608
       82.125070       0.98876532      0.017348022
       82.794628       0.98874433      0.017580543
       83.469644       0.98872744      0.017816319
       84.150164       0.98872197      0.018046600
       84.836232       0.98872305      0.018275672
       85.527894       0.98872137      0.018495896
       86.225195       0.98871922      0.018713663
       86.928180       0.98871972      0.018934233
       87.636897       0.98872222      0.019157688
       88.351392       0.98873525      0.019373556
       89.071713       0.98875331      0.019588414
       89.797906       0.98876126      0.019784852
       90.530020       0.98876714      0.019976905
       91.268102       0.98876313      0.020170761
       92.012202       0.98875739      0.020366639
       92.762369       0.98874717      0.020564410
       93.518651       0.98873683      0.020764263
       94.281100       0.98872371      0.020966080
       95.049764       0.98871099      0.021170030
       95.824696       0.98869689      0.021375836
       96.605945       0.98868353      0.021583805
       97.393564       0.98867003      0.021793684
       98.187605       0.98865752      0.022005784
       98.988119       0.98864817      0.022219969
       99.795159       0.98864029      0.022436449
       100.60878       0.98863870      0.022647740
       101.42903       0.98863894      0.022860661
       102.25597       0.98863233      0.023067122
       103.08966       0.98862670      0.023275194
       103.93014       0.98861832      0.023485242
       104.77747       0.98861117      0.023697331
       105.63171       0.98860530      0.023911381
       106.49292       0.98860092      0.024127526
       107.36114       0.98860212      0.024345821
       108.23645       0.98860570      0.024566053
       109.11889       0.98862591      0.024784917
       110.00852       0.98864796      0.025002275
       110.90541       0.98866988      0.025177466
       111.80961       0.98869137      0.025353414
       112.72119       0.98869211      0.025528556
       113.64019       0.98869260      0.025704319
       114.56669       0.98868187      0.025878934
       115.50074       0.98867089      0.026054528
       116.44241       0.98865253      0.026231719
       117.39175       0.98863396      0.026409861
       118.34883       0.98861029      0.026589302
       119.31372       0.98858645      0.026769787
       120.28647       0.98855896      0.026951829
       121.26716       0.98853146      0.027134899
       122.25584       0.98850172      0.027319363
       123.25258       0.98847342      0.027504898
       124.25744       0.98844794      0.027691913
       125.27050       0.98842563      0.027875787
       126.29182       0.98841048      0.028049326
       127.32147       0.98838877      0.028217527
       128.35951       0.98834910      0.028371741
       129.40601       0.98830298      0.028528385
       130.46104       0.98824193      0.028690381
       131.52468       0.98817920      0.028856023
       132.59699       0.98811310      0.029028732
       133.67804       0.98804588      0.029203417
       134.76790       0.98797671      0.029381334
       135.86665       0.98790641      0.029560350
       136.97436       0.98783435      0.029740857
       138.09110       0.98776111      0.029922526
       139.21694       0.98768621      0.030105672
       140.35196       0.98761238      0.030290041
       141.49624       0.98754006      0.030475865
       142.64984       0.98747141      0.030656002
       143.81285       0.98740724      0.030829123
       144.98535       0.98733063      0.030994722
       146.16740       0.98724032      0.031151983
       147.35909       0.98713866      0.031313322
       148.56049       0.98702563      0.031478723
       149.77169       0.98691052      0.031653278
       150.99277       0.98679339      0.031836156
       152.22379       0.98667571      0.032020867
       153.46486       0.98655738      0.032207130
       154.71604       0.98643742      0.032395337
       155.97743       0.98631593      0.032585077
       157.24910       0.98619307      0.032776845
       158.53114       0.98606887      0.032970104
       159.82362       0.98594427      0.033165507
       161.12665       0.98581894      0.033362365
       162.44030       0.98569506      0.033561475
       163.76466       0.98557145      0.033762006
       165.09982       0.98545590      0.033964902
       166.44586       0.98534390      0.034169202
       167.80288       0.98523875      0.034355439
       169.17096       0.98513629      0.034533658
       170.55019       0.98502302      0.034691620
       171.94067       0.98490500      0.034841118
       173.34249       0.98476984      0.034991270
       174.75573       0.98462785      0.035140999
       176.18050       0.98447864      0.035293462
       177.61688       0.98432608      0.035446096
       179.06498       0.98417341      0.035601585
       180.52487       0.98401949      0.035757154
       181.99668       0.98388028      0.035901582
       183.48048       0.98374343      0.036042521
       184.97638       0.98358447      0.036139863
       186.48447       0.98341989      0.036226903
       188.00486       0.98322492      0.036319701
       189.53765       0.98302301      0.036411219
       191.08293       0.98280772      0.036508638
       192.64081       0.98258811      0.036604605
       194.21139       0.98237209      0.036696308
       195.79478       0.98215370      0.036785210
       197.39107       0.98191270      0.036838655
       199.00038       0.98166691      0.036886392
       200.62281       0.98139449      0.036936223
       202.25847       0.98111698      0.036982565
       203.90747       0.98080719      0.037008080
       205.56990       0.98049158      0.037029242
       207.24590       0.98013844      0.037058630
       208.93555       0.97977841      0.037084241
       210.63898       0.97938984      0.037117565
       212.35630       0.97899328      0.037147483
       214.08762       0.97857155      0.037184774
       215.83306       0.97814068      0.037219038
       217.59272       0.97768449      0.037260309
       219.36674       0.97721777      0.037300026
       221.15521       0.97672376      0.037355713
       222.95827       0.97622054      0.037410180
       224.77603       0.97570712      0.037476872
       226.60860       0.97518355      0.037541403
       228.45612       0.97464637      0.037609075
       230.31870       0.97409639      0.037672951
       232.19647       0.97352278      0.037731368
       234.08954       0.97293201      0.037788223
       235.99805       0.97230446      0.037849441
       237.92212       0.97165599      0.037919130
       239.86188       0.97096404      0.038026553
       241.81745       0.97026675      0.038139776
       243.78896       0.96957977      0.038275343
       245.77655       0.96888021      0.038410585
       247.78034       0.96816836      0.038547825
       249.80047       0.96743207      0.038684799
       251.83707       0.96665569      0.038823521
       253.89028       0.96584408      0.039000159
       255.96022       0.96497373      0.039259640
       258.04704       0.96413209      0.039545990
       260.15087       0.96336062      0.039882790
       262.27186       0.96260315      0.040223417
       264.41013       0.96188000      0.040568519
       266.56584       0.96117425      0.040917587
       268.73913       0.96050275      0.041271146
       270.93013       0.95985500      0.041595179
       273.13900       0.95924551      0.041875979
       275.36588       0.95862161      0.042144195
       277.61091       0.95798175      0.042395765
       279.87424       0.95735714      0.042649887
       282.15603       0.95675200      0.042906909
       284.45642       0.95621951      0.043149667
       286.77557       0.95576510      0.043377132
       289.11362       0.95530661      0.043410565
       291.47073       0.95484395      0.043255309
       293.84707       0.95435859      0.043014528
       296.24277       0.95385246      0.042696716
       298.65801       0.95314185      0.042239555
       301.09294       0.95226525      0.041667257
       303.54772       0.95124107      0.041117675
       306.02252       0.95010451      0.040579106
       308.51749       0.94882496      0.040076292
       311.03281       0.94744283      0.039590605
       313.56863       0.94593528      0.039156489
       316.12512       0.94434085      0.038746244
       318.70246       0.94258628      0.038481094
       321.30081       0.94072938      0.038287696
       323.92034       0.93897079      0.038227439
       326.56123       0.93724051      0.038227302
       329.22366       0.93547695      0.038187707
       331.90778       0.93367892      0.038127713
       334.61380       0.93184492      0.038124763
       337.34187       0.92997460      0.038140164
       340.09219       0.92803909      0.038191609
       342.86492       0.92605619      0.038252498
       345.66027       0.92406554      0.038363725
       348.47840       0.92204484      0.038487930
       351.31951       0.91998242      0.038619750
       354.18379       0.91787926      0.038752048
       357.07142       0.91571810      0.038940193
       359.98258       0.91351135      0.039139904
       362.91749       0.91126824      0.039365545
       365.87632       0.90898280      0.039596094
       368.85927       0.90661143      0.039842992
       371.86655       0.90418806      0.040092924
       374.89834       0.90171020      0.040500414
       377.95485       0.89918353      0.040930074
       381.03628       0.89667229      0.041403316
       384.14283       0.89411827      0.041885893
       387.27471       0.89158267      0.042394881
       390.43212       0.88900273      0.042911867
       393.61528       0.88635779      0.043395984
       396.82438       0.88366233      0.043885109
       400.05966       0.88088462      0.044417010
       403.32130       0.87805372      0.044956977
       406.60954       0.87514659      0.045539915
       409.92459       0.87218311      0.046132848
       413.26667       0.86913502      0.046771276
   430.18	.88184	.08196
   446.26	.87980	.07391
   454.14	.87485	.0839
   460.74 	.87185	.08993
   485.1	.84321	.11017
   489.52	.84281	.11111
   537.04	.83677	.15492
   539.09	.83468	.15377
   555.07	.81961	.20376
   584.34	.82181	.17084
   616.29	.81925	.17245
   671.48	.76112	.2185
   718.5	.72301	.24191
   735.91	.73919	.22989
   743.72	.72581	.21529
   746.98	.72959	.2585
   834.47	.69182	.39064
   878.01	.70432	.51598
   916.71	.70285	.49134
   919.79	.70370	.50016
   932.05	.70917	.52915
   963.94	.72689	.557
   988.78	.70416	.58519
  1008.		.71395	.59472
  1025.8	.71175	.65573
  1031.		.70115	.61222
  1039.2	.69227	.61862
  1048.2	.71631	.64640
  1066.7	.70576	.64936
  1085.7	.69965	.64866
  1135.		.69693	.71744
  1152.1	.69081	.73722
  1167.5	.775712	.84457
  1199.6	.65525	.72928
  1243.2	.65597	.89324
  1302.2	.58243	.78522
       1377.56      0.901000       1.13600
       1549.75      0.899000       1.43500
       1771.14       1.06300       1.83800
       1878.48       1.24700       2.04700
       1967.94       1.44100       1.98800
       1999.68       1.42400       1.97600
       2066.33       1.26400       2.47200
       2066.33       1.39500       2.04800
       2087.21       1.28700       2.52300
       2101.36       1.28800       2.55600
       2122.95       1.30400       2.59200
       2137.59       1.31100       2.62500
       2159.93       1.32100       2.67300
       2175.09       1.32500       2.71000
       2198.23       1.33900       2.77200
       2213.93       1.34900       2.81500
       2237.91       1.36700       2.88500
       2254.18       1.38300       2.93600
       2279.04       1.41000       3.01900
       2295.93       1.43000       3.07900
       2321.72       1.46800       3.18100
       2339.25       1.49900       3.25500
       2366.03       1.55200       3.38400
       2384.23       1.59900       3.48400
       2412.06       1.69900       3.66000
       2430.98       1.80200       3.79500
       2459.92       2.04400       3.99200
       2479.60       2.27300       4.08400
       2509.72       2.65400       4.10600
       2530.20       2.89000       4.04700
       2561.57       3.18700       3.89800
       2582.92       3.34200       3.77000
       2615.61       3.51100       3.57400
       2637.87       3.59800       3.45200
       2671.98       3.70800       3.28000
       2695.22       3.76900       3.16900
       2730.84       3.85000       3.01800
       2755.11       3.91300       2.91900
       2792.34       4.00400       2.71500
       2817.73       4.01500       2.56300
       2856.68       3.98100       2.36800
       2883.26       3.93900       2.26000
       2924.06       3.86400       2.13200
       2951.90       3.81000       2.06900
       2994.69       3.73600       2.00100
       3023.90       3.69200       1.96900
       3068.81       3.63400       1.93500
       3099.50       3.60100       1.92000
       3146.70       3.55900       1.90700
       3178.97       3.53800       1.90400
       3228.65       3.51200       1.90500
       3262.63       3.50100       1.90900
       3314.97       3.48800       1.92000
       3350.81       3.48500       1.93100
       3406.04       3.48900       1.95000
       3443.89       3.49500       1.96500
       3502.26       3.51300       1.99200
       3542.29       3.53100       2.01300
       3562.64       3.54100       2.02400
       3583.24       3.55300       2.03600
       3604.07       3.56600       2.04900
       3625.15       3.58000       2.06200
       3646.47       3.59600       2.07600
       3668.05       3.61400       2.09100
       3689.88       3.63500       2.10700
       3711.98       3.65700       2.12300
       3734.34       3.68100       2.14200
       3756.97       3.70900       2.16200
       3779.88       3.74000       2.18300
       3803.07       3.77600       2.20700
       3826.54       3.81800       2.23200
       3850.31       3.87100       2.26000
       3874.38       3.93800       2.28800
       3898.74       4.02300       2.30700
       3923.42       4.12600       2.30400
       3948.41       4.22900       2.27000
       3973.72       4.31300       2.21200
       3999.35       4.37300       2.14600
       4025.32       4.41300       2.08200
       4051.63       4.43900       2.02900
       4078.29       4.46200       1.98800
       4105.30       4.48300       1.96100
       4132.67       4.50900       1.94800
       4160.40       4.55000       1.95200
       4188.51       4.62600       1.96700
       4217.01       4.75500       1.96000
       4245.89       4.91700       1.88500
       4275.17       5.05200       1.72100
       4304.86       5.10700       1.52900
       4334.97       5.10200       1.35300
       4365.49       5.06500       1.20600
       4396.45       5.01500       1.08800
       4427.86       4.95900      0.991000
       4459.71       4.90200      0.912000
       4492.03       4.84500      0.846000
       4524.82       4.79300      0.789000
       4558.09       4.74100      0.739000
       4591.85       4.69400      0.696000
       4626.12       4.64900      0.659000
       4660.90       4.60500      0.626000
       4696.21       4.56700      0.595000
       4732.06       4.52500      0.569000
       4768.46       4.49200      0.539000
       4805.43       4.45600      0.517000
       4842.97       4.42300      0.497000
       4881.10       4.39200      0.476000
       4919.84       4.36200      0.458000
       4959.20       4.33300      0.441000
       4999.19       4.30500      0.426000
       5039.84       4.27900      0.411000
       5081.15       4.25400      0.398000
       5123.14       4.22900      0.385000
       5165.83       4.20500      0.371000
       5209.24       4.18300      0.359000
       5253.39       4.16200      0.347000
       5298.29       4.14100      0.337000
       5343.97       4.12000      0.327000
       5390.44       4.10000      0.320000
       5437.72       4.08200      0.308000
       5485.84       4.06300      0.301000
       5534.82       4.04500      0.294000
       5584.68       4.02900      0.285000
       5635.45       4.01300      0.276000
       5687.16       3.99800      0.266000
       5739.81       3.98300      0.257000
       5793.46       3.96800      0.251000
       5848.11       3.95400      0.245000
       5903.81       3.94000      0.240000
       5960.58       3.92700      0.232000
       6018.45       3.91400      0.228000
       6077.45       3.90200      0.223000
       6137.62       3.89000      0.213000
       6199.00       3.87800      0.211000
       6261.62       3.86700      0.203000
       6325.51       3.85600      0.196000
       6390.72       3.84600      0.187000
       6457.29       3.83600      0.183000
       6525.26       3.82600      0.179000
       6594.68       3.81700      0.173000
       6665.59       3.80900      0.173000
       6738.04       3.79900      0.168000
       6812.09       3.79200      0.158000
       6887.78       3.78500      0.151000
       6965.17       3.77900      0.152000
       7044.32       3.77200      0.134000
       7125.29       3.76200      0.127000
       7208.14       3.75200      0.118000
       7292.94       3.74200      0.112000
       7379.76       3.73400      0.105000
       7468.67       3.72500      0.101000
       7559.76       3.71600     0.0970000
       7653.09       3.70700     0.0930000
       7748.75       3.70000     0.0910000
       7846.84       3.69300     0.0890000
       7947.44       3.68500     0.0870000
       8050.65       3.67900     0.0850000
       8156.58       3.67200     0.0830000
       8265.33       3.66600     0.0800000
       8855.71       3.61400    0.00169000
       9183.70       3.56900       0.00000
       9536.92       3.53880       0.00000
       9918.40       3.51380       0.00000
       10331.7       3.49200       0.00000
       10780.9       3.47240       0.00000
       11270.9       3.45460       0.00000
       11807.6       3.43830       0.00000
       12398.0       3.42320       0.00000
       13050.5       3.40940       0.00000
       13775.6       3.39650       0.00000
       14585.9       3.38470       0.00000
       15497.5       3.37370       0.00000
       16530.7       3.36360       0.00000
       17711.4       3.35430       0.00000
       19073.8       3.34570       0.00000
       20663.3       3.33780       0.00000
       22541.8       3.33060       0.00000
       24796.0       3.32400       0.00000
       27551.1       3.31800       0.00000
       30995.0       3.31250       0.00000
       35422.9       3.30750       0.00000
       41326.7       3.30270       0.00000
       42751.7       3.30170       0.00000
       44278.6       3.30080       0.00000
       45918.5       3.29980       0.00000
       47684.6       3.29880       0.00000
       49592.0       3.29780       0.00000
       51658.3       3.29680       0.00000
       53904.3       3.29540       0.00000
       56354.5       3.29460       0.00000
       59038.1       3.29340       0.00000
       61990.0       3.29210       0.00000
       65252.6       3.29070       0.00000
       68877.8       3.28910       0.00000
       72929.4       3.28740       0.00000
       77487.5       3.28540       0.00000
       82653.3       3.28310       0.00000
       88557.1       3.28030       0.00000
       95369.2       3.27690       0.00000
       103317.       3.27270       0.00000
       112709.       3.26710       0.00000
       123980.       3.25970   4.93000e-06
       137756.       3.24930   1.64000e-05
       154975.       3.23360   2.83000e-05
       177114.       3.20810   0.000232000
       190738.       3.18860    0.00827000
       192217.       3.20500    0.00627000
       206633.       3.16090    0.00345000
       208370.       3.17600    0.00318000
       217509.       3.15700    0.00450000
       229593.       3.12600    0.00456000
       238423.       3.10000    0.00343000
       250465.       3.05800    0.00207000
       263787.       2.99700    0.00233000
       277795.       2.91300    0.00650000
       285734.       2.85100    0.00840000
       294140.       2.77000     0.0113000
       302981.       2.65900     0.0159000
       312450.       2.49500     0.0243000
       317409.       2.38000     0.0314000
       322529.       2.22900     0.0421000
       327816.       2.02000     0.0602000
       333280.       1.70700     0.0959000
       334448.       1.62300      0.107000
       335534.       1.52900      0.122000
       336719.       1.42200      0.141000
       337820.       1.29800      0.166000
       338928.       1.15100      0.201000
       340137.      0.975000      0.257000
       341261.      0.761000      0.357000
       342486.      0.536000      0.552000
       343625.      0.391000      0.826000
       344772.      0.323000       1.09000
       346023.      0.291000       1.34000
       347186.      0.275000       1.57000
       348454.      0.267000       1.79000
       349633.      0.266000       2.01000
       350821.      0.270000       2.23000
       352116.      0.278000       2.46000
       353320.      0.290000       2.69000
       354634.      0.307000       2.94000
       355855.      0.329000       3.20000
       357085.      0.358000       3.48000
       358427.      0.395000       3.79000
       359675.      0.443000       4.14000
       361037.      0.506000       4.52000
       362303.      0.592000       4.97000
       363684.      0.713000       5.49000
       364969.      0.890000       6.12000
       366263.       1.17000       6.91000
       367675.       1.64000       7.94000
       368988.       2.56000       9.32000
       370311.       4.66000       11.0000
       371086.       6.63000       11.6000
       371754.       9.30000       11.3000
       372424.       11.6000       9.37000
       373097.       12.4000       6.74000
       373771.       12.0000       4.66000
       374562.       11.3000       3.30000
       375242.       10.6000       2.43000
       375925.       9.90000       1.87000
       377298.       8.87000       1.20000
       378796.       8.12000      0.844000
       380190.       7.55000      0.629000
       381712.       7.11000      0.489000
       383127.       6.76000      0.393000
       384553.       6.47000      0.323000
       392094.       5.57000      0.153000
       399936.       5.08000     0.0902000
       416599.       4.57000     0.0426000
       434712.       4.30000     0.0249000
       454472.       4.13000     0.0163000
       476114.       4.02000     0.0115000
       499919.       3.93000    0.00849000
       499919.       3.87000       0.00000
       999839.       3.65000    0.00360000
       999839.       3.62500    0.00278000
   1.49988e+06       3.62300       0.00000
   1.49988e+06       3.62000       0.00000
   2.00000e+06       3.61500       0.00000
   2.00000e+06       3.61000       0.00000
   2.99976e+06       3.61100       0.00000
   2.99976e+06       3.60000       0.00000
   4.99919e+06       3.60700       0.00000
   9.99839e+06       3.60600       0.00000
