;  Optical constants for GaP
;  
;  Concatenation of:
;  
;  GaP_llnl_cxro + GaP_palik   
;
;    Lambda (A)            n            k
;-----------------------------------------
      0.12398000       0.99999992    1.0146180e-10
      0.12499080       0.99999992    1.0486122e-10
      0.12600983       0.99999992    1.0837885e-10
      0.12703718       0.99999992    1.1201588e-10
      0.12807290       0.99999992    1.1576372e-10
      0.12911707       0.99999992    1.1964585e-10
      0.13016975       0.99999991    1.2364430e-10
      0.13123101       0.99999991    1.2778251e-10
      0.13230092       0.99999991    1.3205951e-10
      0.13337956       0.99999991    1.3647524e-10
      0.13446699       0.99999991    1.4107064e-10
      0.13556329       0.99999991    1.4576825e-10
      0.13666852       0.99999990    1.5067786e-10
      0.13778277       0.99999990    1.5569103e-10
      0.13890610       0.99999990    1.6090885e-10
      0.14003858       0.99999990    1.6629452e-10
      0.14118030       0.99999990    1.7185591e-10
      0.14233133       0.99999990    1.7762531e-10
      0.14349175       0.99999990    1.8353564e-10
      0.14466162       0.99999989    1.8970790e-10
      0.14584103       0.99999989    1.9600733e-10
      0.14703006       0.99999989    2.0258479e-10
      0.14822878       0.99999989    2.0936581e-10
      0.14943728       0.99999989    2.1635241e-10
      0.15065563       0.99999988    2.2359316e-10
      0.15188391       0.99999988    2.3108250e-10
      0.15312220       0.99999988    2.3881820e-10
      0.15437059       0.99999988    2.4681697e-10
      0.15562916       0.99999988    2.5504354e-10
      0.15689799       0.99999987    2.6352142e-10
      0.15817716       0.99999987    2.7228156e-10
      0.15946677       0.99999987    2.8133393e-10
      0.16076688       0.99999987    2.9067006e-10
      0.16207760       0.99999987    3.0037992e-10
      0.16339900       0.99999986    3.1032450e-10
      0.16473118       0.99999986    3.2064459e-10
      0.16607422       0.99999986    3.3129501e-10
      0.16742821       0.99999986    3.4225978e-10
      0.16879323       0.99999985    3.5358894e-10
      0.17016939       0.99999985    3.6530491e-10
      0.17155676       0.99999985    3.7743036e-10
      0.17295545       0.99999985    3.8995239e-10
      0.17436554       0.99999985    4.0284239e-10
      0.17578712       0.99999984    4.1622987e-10
      0.17722030       0.99999984    4.2996426e-10
      0.17866516       0.99999984    4.4424080e-10
      0.18012180       0.99999983    4.5890946e-10
      0.18159031       0.99999983    4.7410826e-10
      0.18307080       0.99999983    4.8975982e-10
      0.18456336       0.99999983    5.0595678e-10
      0.18606809       0.99999982    5.2271802e-10
      0.18758508       0.99999982    5.4000916e-10
      0.18911444       0.99999982    5.5789327e-10
      0.19065628       0.99999981    5.7627908e-10
      0.19221068       0.99999981    5.9538666e-10
      0.19377775       0.99999981    6.1493298e-10
      0.19535760       0.99999981    6.3537987e-10
      0.19695034       0.99999980    6.5624449e-10
      0.19855605       0.99999980    6.7791911e-10
      0.20017486       0.99999980    7.0033012e-10
      0.20180687       0.99999979    7.2336951e-10
      0.20345218       0.99999979    7.4725987e-10
      0.20511091       0.99999979    7.7196806e-10
      0.20678315       0.99999978    7.9733449e-10
      0.20846904       0.99999978    8.2362006e-10
      0.21016867       0.99999977    8.5087670e-10
      0.21188215       0.99999977    8.7869422e-10
      0.21360961       0.99999977    9.0761962e-10
      0.21535114       0.99999976    9.3749551e-10
      0.21710688       0.99999976    9.6845368e-10
      0.21887693       0.99999976    1.0003086e-09
      0.22066141       0.99999975    1.0332462e-09
      0.22246045       0.99999975    1.0673457e-09
      0.22427414       0.99999974    1.1024814e-09
      0.22610263       0.99999974    1.1386428e-09
      0.22794602       0.99999973    1.1760661e-09
      0.22980444       0.99999973    1.2143636e-09
      0.23167802       0.99999973    1.2541420e-09
      0.23356687       0.99999972    1.2952820e-09
      0.23547111       0.99999972    1.3377588e-09
      0.23739089       0.99999971    1.3816157e-09
      0.23932631       0.99999971    1.4268958e-09
      0.24127752       0.99999970    1.4736366e-09
      0.24324463       0.99999970    1.5218827e-09
      0.24522778       0.99999969    1.5717794e-09
      0.24722710       0.99999969    1.6233427e-09
      0.24924272       0.99999968    1.6764253e-09
      0.25127477       0.99999968    1.7311222e-09
      0.25332339       0.99999967    1.7875580e-09
      0.25538871       0.99999967    1.8458812e-09
      0.25747087       0.99999966    1.9062042e-09
      0.25957000       0.99999966    1.9684375e-09
      0.26168625       0.99999965    2.0326368e-09
      0.26381975       0.99999964    2.0988575e-09
      0.26597065       0.99999964    2.1674746e-09
      0.26813908       0.99999963    2.2382707e-09
      0.27032520       0.99999963    2.3113737e-09
      0.27252913       0.99999962    2.3868736e-09
      0.27475103       0.99999961    2.4647367e-09
      0.27699105       0.99999961    2.5451031e-09
      0.27924933       0.99999960    2.6276571e-09
      0.28152603       0.99999959    2.7132880e-09
      0.28382128       0.99999959    2.8014085e-09
      0.28613525       0.99999958    2.8928320e-09
      0.28846808       0.99999957    2.9862572e-09
      0.29081993       0.99999957    3.0837345e-09
      0.29319096       0.99999956    3.1833654e-09
      0.29558132       0.99999955    3.2874941e-09
      0.29799117       0.99999955    3.3938242e-09
      0.30042066       0.99999954    3.5042635e-09
      0.30286996       0.99999953    3.6178865e-09
      0.30533923       0.99999952    3.7356774e-09
      0.30782863       0.99999952    3.8571694e-09
      0.31033833       0.99999951    3.9815698e-09
      0.31286848       0.99999950    4.1105898e-09
      0.31541927       0.99999949    4.2436958e-09
      0.31799085       0.99999948    4.3805820e-09
      0.32058340       0.99999947    4.5227634e-09
      0.32319709       0.99999947    4.6690700e-09
      0.32583208       0.99999946    4.8199025e-09
      0.32848856       0.99999945    4.9757320e-09
      0.33116670       0.99999944    5.1357488e-09
      0.33386667       0.99999943    5.3015044e-09
      0.33658865       0.99999942    5.4724523e-09
      0.33933282       0.99999941    5.6483795e-09
      0.34209937       0.99999940    5.8308924e-09
      0.34488847       0.99999939    6.0183922e-09
      0.34770032       0.99999938    6.2122962e-09
      0.35053508       0.99999937    6.4126301e-09
      0.35339296       0.99999936    6.6194884e-09
      0.35627414       0.99999935    6.8324763e-09
      0.35917881       0.99999934    7.0518545e-09
      0.36210716       0.99999933    7.2791707e-09
      0.36505938       0.99999932    7.5130637e-09
      0.36803568       0.99999931    7.7549158e-09
      0.37103624       0.99999929    8.0038223e-09
      0.37406126       0.99999928    8.2619091e-09
      0.37711095       0.99999927    8.5269755e-09
      0.38018549       0.99999926    8.7991936e-09
      0.38328511       0.99999925    9.0809733e-09
      0.38641000       0.99999923    9.3722833e-09
      0.38956036       0.99999922    9.6718508e-09
      0.39273641       0.99999921    9.9813361e-09
      0.39593835       0.99999920    1.0300747e-08
      0.39916640       0.99999918    1.0630883e-08
      0.40242076       0.99999917    1.0970086e-08
      0.40570166       0.99999916    1.1322324e-08
      0.40900931       0.99999914    1.1707453e-08
      0.41234392       0.99999913    1.2147216e-08
      0.41570572       0.99999911    1.2555485e-08
      0.41909493       0.99999910    1.2956480e-08
      0.42251177       0.99999908    1.3372392e-08
      0.42595647       0.99999907    1.3799071e-08
      0.42942925       0.99999905    1.4241830e-08
      0.43293034       0.99999904    1.4695797e-08
      0.43645998       0.99999902    1.5167064e-08
      0.44001840       0.99999901    1.5650011e-08
      0.44360583       0.99999899    1.6151671e-08
      0.44722250       0.99999897    1.6665506e-08
      0.45086866       0.99999896    1.7199413e-08
      0.45454455       0.99999894    1.7745991e-08
      0.45825041       0.99999892    1.8314190e-08
      0.46198648       0.99999890    1.8895581e-08
      0.46575301       0.99999889    1.9500285e-08
      0.46955025       0.99999887    2.0118683e-08
      0.47337845       0.99999885    2.0762230e-08
      0.47723786       0.99999883    2.1420038e-08
      0.48112873       0.99999881    2.2104761e-08
      0.48505133       0.99999879    2.2804284e-08
      0.48900590       0.99999877    2.3532838e-08
      0.49299272       0.99999875    2.4276746e-08
      0.49701204       0.99999873    2.5051809e-08
      0.50106413       0.99999871    2.5843045e-08
      0.50514926       0.99999869    2.6667375e-08
      0.50926770       0.99999867    2.7509131e-08
      0.51341971       0.99999865    2.8385648e-08
      0.51760557       0.99999862    2.9281162e-08
      0.52182555       0.99999860    3.0213062e-08
      0.52607995       0.99999858    3.1165632e-08
      0.53036903       0.99999855    3.2156242e-08
      0.53469307       0.99999853    3.3169333e-08
      0.53905238       0.99999851    3.4222350e-08
      0.54344722       0.99999848    3.5299804e-08
      0.54787789       0.99999846    3.6419186e-08
      0.55234469       0.99999843    3.7565085e-08
      0.55684790       0.99999841    3.8754886e-08
      0.56138783       0.99999838    3.9973424e-08
      0.56596477       0.99999835    4.1237770e-08
      0.57057902       0.99999833    4.2533302e-08
      0.57523090       0.99999830    4.3876763e-08
      0.57992070       0.99999827    4.5254034e-08
      0.58464874       0.99999824    4.6681807e-08
      0.58941532       0.99999821    4.8146194e-08
      0.59422077       0.99999819    4.9663188e-08
      0.59906539       0.99999816    5.1219825e-08
      0.60394951       0.99999813    5.2831491e-08
      0.60887346       0.99999809    5.4486056e-08
      0.61383754       0.99999806    5.6198287e-08
      0.61884210       0.99999803    5.7956761e-08
      0.62388746       0.99999800    5.9775173e-08
      0.62897395       0.99999797    6.1643600e-08
      0.63410192       0.99999793    6.3574675e-08
      0.63927169       0.99999790    6.5560022e-08
      0.64448361       0.99999787    6.7611280e-08
      0.64973802       0.99999783    6.9720943e-08
      0.65503527       0.99999780    7.1899080e-08
      0.66037571       0.99999776    7.4140174e-08
      0.66575969       0.99999772    7.6453042e-08
      0.67118757       0.99999769    7.8833615e-08
      0.67665969       0.99999765    8.1288705e-08
      0.68217644       0.99999761    8.3816952e-08
      0.68773815       0.99999757    8.6423415e-08
      0.69334522       0.99999753    8.9108774e-08
      0.69899799       0.99999749    9.1875769e-08
      0.70469686       0.99999745    9.4727103e-08
      0.71044218       0.99999741    9.7662951e-08
      0.71623435       0.99999737    1.0069012e-07
      0.72207374       0.99999732    1.0380596e-07
      0.72796073       0.99999728    1.0702011e-07
      0.73389573       0.99999724    1.1032665e-07
      0.73987911       0.99999719    1.1373825e-07
      0.74591127       0.99999715    1.1724588e-07
      0.75199261       0.99999710    1.2086696e-07
      0.75812354       0.99999705    1.2458845e-07
      0.76430445       0.99999701    1.2843068e-07
      0.77053575       0.99999696    1.3237704e-07
      0.77681785       0.99999691    1.3645410e-07
      0.78315117       0.99999686    1.4064024e-07
      0.78953613       0.99999681    1.4496625e-07
      0.79597314       0.99999676    1.4940537e-07
      0.80246263       0.99999670    1.5399419e-07
      0.80900503       0.99999665    1.5870052e-07
      0.81560077       0.99999660    1.6356746e-07
      0.82225028       0.99999654    1.6855688e-07
      0.82895401       0.99999649    1.7371817e-07
      0.83571239       0.99999643    1.7900671e-07
      0.84252588       0.99999637    1.8447850e-07
      0.84939491       0.99999632    1.9008222e-07
      0.85631994       0.99999626    1.9588391e-07
      0.86330144       0.99999620    2.0182345e-07
      0.87033985       0.99999614    2.0797220e-07
      0.87743565       0.99999608    2.1426362e-07
      0.88458929       0.99999601    2.2078097e-07
      0.89180126       0.99999595    2.2744694e-07
      0.89907203       0.99999589    2.3435130e-07
      0.90640208       0.99999582    2.4140940e-07
      0.91379189       0.99999575    2.4872555e-07
      0.92124195       0.99999569    2.5620204e-07
      0.92875274       0.99999562    2.6394997e-07
      0.93632477       0.99999555    2.7186373e-07
      0.94395854       0.99999548    2.8007051e-07
      0.95165454       0.99999541    2.8844980e-07
      0.95941329       0.99999534    2.9713617e-07
      0.96723529       0.99999527    3.0600114e-07
      0.97512107       0.99999519    3.1519888e-07
      0.98307114       0.99999512    3.2458495e-07
      0.99108602       0.99999505    3.3431447e-07
      0.99916625       0.99999497    3.4424682e-07
       1.0073124       0.99999489    3.5454042e-07
       1.0155249       0.99999482    3.6505227e-07
       1.0238044       0.99999474    3.7593432e-07
       1.0321513       0.99999466    3.8705149e-07
       1.0405664       0.99999458    3.9855971e-07
       1.0490500       0.99999450    4.1032029e-07
       1.0576028       0.99999442    4.2248331e-07
       1.0662253       0.99999434    4.3491706e-07
       1.0749182       0.99999426    4.4777002e-07
       1.0836819       0.99999417    4.6091402e-07
       1.0925170       0.99999409    4.7449477e-07
       1.1014242       0.99999401    4.8838780e-07
       1.1104040       0.99999393    5.0273260e-07
       1.1194570       0.99999385    5.1741096e-07
       1.1285839       0.99999377    5.3255658e-07
       1.1377851       0.99999369    5.4805853e-07
       1.1470613       0.99999362    5.6404570e-07
       1.1564132       0.99999356    5.8041451e-07
       1.1658413       0.99999350    5.9728912e-07
       1.1753463       0.99999348    6.1456981e-07
       1.1849288       0.99999352    6.3237103e-07
       1.1945894       0.99999422    6.5059268e-07
       1.2043288       0.99999374    1.2528826e-07
       1.2141476       0.99999308    1.2933588e-07
       1.2240464       0.99999290    1.3352380e-07
       1.2340259       0.99999273    1.3783043e-07
       1.2440868       0.99999257    1.4228521e-07
       1.2542298       0.99999242    1.4686716e-07
       1.2644554       0.99999227    1.5160240e-07
       1.2747644       0.99999212    1.5647609e-07
       1.2851574       0.99999197    1.6151151e-07
       1.2956351       0.99999182    1.6669744e-07
       1.3061983       0.99999167    1.7205352e-07
       1.3168476       0.99999152    1.7757201e-07
       1.3275838       0.99999136    1.8326797e-07
       1.3384074       0.99999121    1.8913858e-07
       1.3493193       0.99999105    1.9519390e-07
       1.3603202       0.99999089    2.0143760e-07
       1.3714108       0.99999073    2.0787426e-07
       1.3825918       0.99999057    2.1451552e-07
       1.3938639       0.99999041    2.2135936e-07
       1.4052279       0.99999024    2.2842405e-07
       1.4166846       0.99999007    2.3570038e-07
       1.4282347       0.99998990    2.4321436e-07
       1.4398790       0.99998973    2.5094926e-07
       1.4516182       0.99998955    2.5894241e-07
       1.4634531       0.99998937    2.6716701e-07
       1.4753845       0.99998919    2.7566585e-07
       1.4874131       0.99998900    2.8440367e-07
       1.4995399       0.99998882    2.9344231e-07
       1.5117655       0.99998862    3.0273316e-07
       1.5240907       0.99998843    3.1234641e-07
       1.5365165       0.99998823    3.2222134e-07
       1.5490436       0.99998803    3.3244425e-07
       1.5616728       0.99998783    3.4294128e-07
       1.5744049       0.99998762    3.5381227e-07
       1.5872409       0.99998741    3.6496833e-07
       1.6001815       0.99998720    3.7652561e-07
       1.6132277       0.99998698    3.8837960e-07
       1.6263801       0.99998676    4.0066931e-07
       1.6396399       0.99998654    4.1326940e-07
       1.6530077       0.99998631    4.2633770e-07
       1.6664845       0.99998608    4.3972880e-07
       1.6800712       0.99998585    4.5362274e-07
       1.6937687       0.99998561    4.6785234e-07
       1.7075778       0.99998537    4.8262296e-07
       1.7214995       0.99998512    4.9774286e-07
       1.7355347       0.99998487    5.1344489e-07
       1.7496844       0.99998462    5.2951057e-07
       1.7639494       0.99998436    5.4621104e-07
       1.7783307       0.99998409    5.6329179e-07
       1.7928292       0.99998383    5.8103523e-07
       1.8074460       0.99998356    5.9917062e-07
       1.8221819       0.99998328    6.1803705e-07
       1.8370380       0.99998300    6.3731316e-07
       1.8520152       0.99998271    6.5736628e-07
       1.8671145       0.99998242    6.7784400e-07
       1.8823369       0.99998213    6.9915983e-07
       1.8976834       0.99998183    7.2091814e-07
       1.9131550       0.99998153    7.4358766e-07
       1.9287528       0.99998122    7.6673022e-07
       1.9444777       0.99998090    7.9079944e-07
       1.9603309       0.99998058    8.1538309e-07
       1.9763133       0.99998026    8.4094989e-07
       1.9924260       0.99997993    8.6707667e-07
       2.0086700       0.99997959    8.9423976e-07
       2.0250465       0.99997925    9.2200882e-07
       2.0415565       0.99997890    9.5084476e-07
       2.0582011       0.99997855    9.8034434e-07
       2.0749815       0.99997819    1.0110012e-06
       2.0918986       0.99997783    1.0423728e-06
       2.1089536       0.99997746    1.0749248e-06
       2.1261477       0.99997708    1.1082540e-06
       2.1434820       0.99997670    1.1428279e-06
       2.1609576       0.99997631    1.1782437e-06
       2.1785757       0.99997591    1.2149583e-06
       2.1963374       0.99997551    1.2525883e-06
       2.2142439       0.99997510    1.2915944e-06
       2.2322964       0.99997469    1.3315846e-06
       2.2504961       0.99997426    1.3729935e-06
       2.2688442       0.99997383    1.4154772e-06
       2.2873419       0.99997340    1.4594733e-06
       2.3059904       0.99997295    1.5046201e-06
       2.3247909       0.99997250    1.5513191e-06
       2.3437447       0.99997205    1.5992795e-06
       2.3628530       0.99997158    1.6489023e-06
       2.3821171       0.99997111    1.6998673e-06
       2.4015383       0.99997063    1.7525241e-06
       2.4211178       0.99997014    1.8066433e-06
       2.4408569       0.99996964    1.8625582e-06
       2.4607570       0.99996913    1.9200522e-06
       2.4808193       0.99996862    1.9794287e-06
       2.5010452       0.99996810    2.0405092e-06
       2.5214360       0.99996757    2.1035505e-06
       2.5419930       0.99996703    2.1684252e-06
       2.5627176       0.99996648    2.2353362e-06
       2.5836112       0.99996592    2.3042362e-06
       2.6046751       0.99996536    2.3752821e-06
       2.6259108       0.99996478    2.4484638e-06
       2.6473196       0.99996420    2.5238718e-06
       2.6689029       0.99996361    2.6015953e-06
       2.6906622       0.99996300    2.6816596e-06
       2.7125989       0.99996239    2.7641966e-06
       2.7347145       0.99996176    2.8491608e-06
       2.7570104       0.99996113    2.9367965e-06
       2.7794880       0.99996049    3.0269648e-06
       2.8021489       0.99995983    3.1200285e-06
       2.8249946       0.99995917    3.2157545e-06
       2.8480265       0.99995849    3.3145769e-06
       2.8712461       0.99995781    3.4161626e-06
       2.8946551       0.99995711    3.5210711e-06
       2.9182550       0.99995640    3.6288533e-06
       2.9420472       0.99995568    3.7402320e-06
       2.9660335       0.99995495    3.8546266e-06
       2.9902152       0.99995421    3.9728824e-06
       3.0145942       0.99995345    4.0942735e-06
       3.0391719       0.99995268    4.2198009e-06
       3.0639499       0.99995190    4.3485845e-06
       3.0889300       0.99995111    4.4818154e-06
       3.1141138       0.99995031    4.6184407e-06
       3.1395029       0.99994949    4.7598372e-06
       3.1650989       0.99994866    4.9047693e-06
       3.1909037       0.99994782    5.0548406e-06
       3.2169188       0.99994696    5.2085941e-06
       3.2431460       0.99994609    5.3678678e-06
       3.2695871       0.99994520    5.5309724e-06
       3.2962437       0.99994431    5.7000088e-06
       3.3231177       0.99994339    5.8730386e-06
       3.3502107       0.99994247    6.0523447e-06
       3.3775247       0.99994153    6.2357929e-06
       3.4050613       0.99994057    6.4260731e-06
       3.4328224       0.99993960    6.6206727e-06
       3.4608099       0.99993862    6.8225293e-06
       3.4890255       0.99993762    7.0288624e-06
       3.5174712       0.99993660    7.2430028e-06
       3.5461488       0.99993557    7.4617962e-06
       3.5750602       0.99993452    7.6889430e-06
       3.6042074       0.99993346    7.9209235e-06
       3.6335921       0.99993238    8.1618655e-06
       3.6632164       0.99993129    8.4078276e-06
       3.6930823       0.99993018    8.6633118e-06
       3.7231916       0.99992905    8.9240494e-06
       3.7535465       0.99992790    9.1949508e-06
       3.7841488       0.99992674    9.4714918e-06
       3.8150006       0.99992556    9.7586200e-06
       3.8461039       0.99992437    1.0051856e-05
       3.8774608       0.99992315    1.0356094e-05
       3.9090734       0.99992192    1.0666955e-05
       3.9409437       0.99992067    1.0989445e-05
       3.9730738       0.99991941    1.1319075e-05
       4.0054659       0.99991812    1.1660811e-05
       4.0381221       0.99991682    1.2010235e-05
       4.0710445       0.99991550    1.2372054e-05
       4.1042353       0.99991416    1.2742212e-05
       4.1376967       0.99991280    1.3125601e-05
       4.1714310       0.99991142    1.3517974e-05
       4.2054403       0.99991003    1.3924137e-05
       4.2397268       0.99990861    1.4340004e-05
       4.2742929       0.99990718    1.4770289e-05
       4.3091408       0.99990572    1.5210930e-05
       4.3442728       0.99990425    1.5666277e-05
       4.3796912       0.99990276    1.6132987e-05
       4.4153984       0.99990126    1.6615685e-05
       4.4513967       0.99989973    1.7110337e-05
       4.4876885       0.99989818    1.7620883e-05
       4.5242762       0.99989662    1.8144463e-05
       4.5611622       0.99989504    1.8685146e-05
       4.5983489       0.99989343    1.9239828e-05
       4.6358388       0.99989182    1.9812293e-05
       4.6736344       0.99989018    2.0399563e-05
       4.7117381       0.99988853    2.1004906e-05
       4.7501524       0.99988686    2.1626379e-05
       4.7888799       0.99988517    2.2267125e-05
       4.8279232       0.99988347    2.2925150e-05
       4.8672848       0.99988176    2.3603215e-05
       4.9069673       0.99988003    2.4299691e-05
       4.9469733       0.99987829    2.5016848e-05
       4.9873055       0.99987653    2.5753711e-05
       5.0279666       0.99987477    2.6512103e-05
       5.0689591       0.99987300    2.7291768e-05
       5.1102858       0.99987123    2.8094029e-05
       5.1519495       0.99986945    2.8918760e-05
       5.1939528       0.99986767    2.9766718e-05
       5.2362986       0.99986590    3.0639020e-05
       5.2789897       0.99986414    3.1535804e-05
       5.3220288       0.99986240    3.2458330e-05
       5.3654187       0.99986068    3.3406024e-05
       5.4091625       0.99985901    3.4381035e-05
       5.4532629       0.99985737    3.5382124e-05
       5.4977228       0.99985585    3.6412769e-05
       5.5425452       0.99985440    3.7470809e-05
       5.5877330       0.99985321    3.8560090e-05
       5.6332893       0.99985218    3.9677584e-05
       5.6792169       0.99985220    4.0828737e-05
       5.7255190       0.99985284    4.2009455e-05
       5.7721986       0.99987024    4.3225355e-05
       5.8192588       0.99985440    2.9973851e-05
       5.8667027       0.99984412    3.0860846e-05
       5.9145333       0.99983953    3.1770366e-05
       5.9627539       0.99983567    3.2709667e-05
       6.0113677       0.99983208    3.3672615e-05
       6.0603778       0.99982870    3.4666331e-05
       6.1097875       0.99982537    3.5684155e-05
       6.1596000       0.99982214    3.6723455e-05
       6.2098186       0.99981889    3.7783871e-05
       6.2604467       0.99981568    3.8887572e-05
       6.3114875       0.99981244    4.0019604e-05
       6.3629444       0.99980923    4.1190792e-05
       6.4148209       0.99980598    4.2389447e-05
       6.4671203       0.99980274    4.3630270e-05
       6.5198461       0.99979946    4.4899735e-05
       6.5730018       0.99979618    4.6214712e-05
       6.6265908       0.99979286    4.7559465e-05
       6.6806168       0.99978953    4.8952607e-05
       6.7350832       0.99978616    5.0376605e-05
       6.7899937       0.99978279    5.1852597e-05
       6.8453519       0.99977936    5.3360700e-05
       6.9011614       0.99977594    5.4924141e-05
       6.9574259       0.99977246    5.6520882e-05
       7.0141491       0.99976899    5.8171534e-05
       7.0713348       0.99976547    5.9856331e-05
       7.1289867       0.99976195    6.1596734e-05
       7.1871086       0.99975838    6.3372382e-05
       7.2457044       0.99975481    6.5188930e-05
       7.3047779       0.99975118    6.7042257e-05
       7.3643331       0.99974754    6.8963875e-05
       7.4243738       0.99974386    7.0925098e-05
       7.4849040       0.99974017    7.2957607e-05
       7.5459277       0.99973643    7.5032876e-05
       7.6074489       0.99973269    7.7182697e-05
       7.6694717       0.99972891    7.9378696e-05
       7.7320001       0.99972514    8.1652371e-05
       7.7950384       0.99972132    8.3975824e-05
       7.8585906       0.99971752    8.6380916e-05
       7.9226609       0.99971368    8.8839624e-05
       7.9872536       0.99970986    9.1383389e-05
       8.0523729       0.99970601    9.3985032e-05
       8.1180231       0.99970219    9.6675909e-05
       8.1842086       0.99969834    9.9429105e-05
       8.2509337       0.99969454    0.00010227537
       8.3182027       0.99969072    0.00010519008
       8.3860202       0.99968696    0.00010820692
       8.4543906       0.99968319    0.00011129635
       8.5233185       0.99967951    0.00011448839
       8.5928082       0.99967583    0.00011775881
       8.6628646       0.99967226    0.00012113726
       8.7334921       0.99966873    0.00012459929
       8.8046954       0.99966534    0.00012817212
       8.8764792       0.99966202    0.00013183525
       8.9488483       0.99965890    0.00013561503
       9.0218074       0.99965590    0.00013949179
       9.0953613       0.99965319    0.00014349004
       9.1695149       0.99965072    0.00014759315
       9.2442731       0.99964872    0.00015182383
       9.3196408       0.99964735    0.00015616643
       9.3956229       0.99964703    0.00016064107
       9.4722245       0.99965418    0.00016523148
       9.5494506       0.99966904    0.00015283533
       9.6273064       0.99964507    0.00015622149
       9.7057969       0.99963929    0.00015968144
       9.7849273       0.99963457    0.00016321733
       9.8647029       0.99963117    0.00016683310
       9.9451288       0.99962823    0.00017052972
       10.026211       0.99962579    0.00017431025
       10.107953       0.99962382    0.00017817948
       10.190362       0.99962233    0.00018213928
       10.273443       0.99962149    0.00018618841
       10.357202       0.99962126    0.00019032712
       10.441643       0.99962206    0.00019456055
       10.526773       0.99962376    0.00019888729
       10.612597       0.99962737    0.00020331321
       10.699120       0.99963249    0.00020783538
       10.786349       0.99964220    0.00021246280
       10.874289       0.99965522    0.00021719064
       10.962946       0.99969968    0.00022202903
       11.052326       0.99976453    0.00022697139
       11.142434       0.99988213    4.9981284e-05
       11.233278       0.99971232    5.1386633e-05
       11.324861       0.99963690    5.2835181e-05
       11.417192       0.99960908    5.4320119e-05
       11.510275       0.99958735    5.5851889e-05
       11.604117       0.99956817    5.7421747e-05
       11.698725       0.99955131    5.9041221e-05
       11.794103       0.99953519    6.0700205e-05
       11.890259       0.99952026    6.2406909e-05
       11.987199       0.99950558    6.4152598e-05
       12.084930       0.99949159    6.5949401e-05
       12.183457       0.99947762    6.7786957e-05
       12.282788       0.99946409    6.9713899e-05
       12.382928       0.99945048    7.1693444e-05
       12.483885       0.99943716    7.3743868e-05
       12.585665       0.99942371    7.5842425e-05
       12.688275       0.99941045    7.8017065e-05
       12.791721       0.99939702    8.0241698e-05
       12.896010       0.99938370    8.2544560e-05
       13.001150       0.99937018    8.4898745e-05
       13.107148       0.99935671    8.7336101e-05
       13.214009       0.99934304    8.9826717e-05
       13.321741       0.99932936    9.2406258e-05
       13.430352       0.99931546    9.5041128e-05
       13.539849       0.99930153    9.7772962e-05
       13.650238       0.99928736    0.00010056228
       13.761527       0.99927313    0.00010345295
       13.873723       0.99925866    0.00010640329
       13.986834       0.99924409    0.00010946186
       14.100868       0.99922926    0.00011258258
       14.215831       0.99921432    0.00011582175
       14.331731       0.99919912    0.00011912683
       14.448576       0.99918377    0.00012254903
       14.566374       0.99916816    0.00012604219
       14.685132       0.99915236    0.00012965697
       14.804859       0.99913628    0.00013334814
       14.925561       0.99911995    0.00013716919
       15.047248       0.99910333    0.00014107929
       15.169927       0.99908640    0.00014518623
       15.293606       0.99906919    0.00014942826
       15.418293       0.99905178    0.00015413307
       15.543997       0.99903410    0.00015894900
       15.670725       0.99901636    0.00016395239
       15.798487       0.99899833    0.00016907314
       15.927291       0.99898016    0.00017437413
       16.057145       0.99896170    0.00017980073
       16.188057       0.99894304    0.00018541158
       16.320037       0.99892410    0.00019116116
       16.453092       0.99890493    0.00019711744
       16.587233       0.99888547    0.00020322583
       16.722467       0.99886579    0.00020955647
       16.858803       0.99884582    0.00021605199
       16.996252       0.99882562    0.00022278052
       17.134820       0.99880513    0.00022968820
       17.274519       0.99878442    0.00023684038
       17.415356       0.99876343    0.00024417208
       17.557342       0.99874224    0.00025172769
       17.700486       0.99872075    0.00025946747
       17.844796       0.99869902    0.00026742576
       17.990283       0.99867703    0.00027561655
       18.136956       0.99865486    0.00028410006
       18.284825       0.99863247    0.00029274853
       18.433899       0.99860994    0.00030156099
       18.584189       0.99858709    0.00031039890
       18.735704       0.99856390    0.00031919493
       18.888454       0.99854031    0.00032823103
       19.042450       0.99851631    0.00033753211
       19.197701       0.99849198    0.00034704757
       19.354218       0.99846732    0.00035678689
       19.512011       0.99844229    0.00036672361
       19.671091       0.99841688    0.00037686169
       19.831467       0.99839106    0.00038722614
       19.993151       0.99836483    0.00039782021
       20.156154       0.99833818    0.00040870433
       20.320485       0.99831110    0.00041987505
       20.486156       0.99828360    0.00043136060
       20.653177       0.99825569    0.00044314858
       20.821561       0.99822737    0.00045527314
       20.991317       0.99819861    0.00046771285
       21.162457       0.99816944    0.00048053264
       21.334993       0.99813981    0.00049369410
       21.508935       0.99810978    0.00050727805
       21.684295       0.99807931    0.00052122709
       21.861085       0.99804850    0.00053571983
       22.039316       0.99801727    0.00055064344
       22.219001       0.99798582    0.00056597014
       22.400150       0.99795401    0.00058165160
       22.582776       0.99792184    0.00059764446
       22.766892       0.99788924    0.00061395294
       22.952508       0.99785627    0.00063076381
       23.139637       0.99782284    0.00064797522
       23.328293       0.99778925    0.00066566256
       23.518486       0.99775527    0.00068374398
       23.710230       0.99772094    0.00070179390
       23.903537       0.99768614    0.00072008014
       24.098420       0.99765061    0.00073888526
       24.294892       0.99761447    0.00075809800
       24.492966       0.99757783    0.00077788228
       24.692655       0.99754063    0.00079809474
       24.893972       0.99750295    0.00081892125
       25.096930       0.99746471    0.00084019346
       25.301543       0.99742600    0.00086212493
       25.507824       0.99738671    0.00088452026
       25.715787       0.99734701    0.00090761886
       25.925445       0.99730670    0.00093119867
       26.136813       0.99726599    0.00095552769
       26.349904       0.99722467    0.00098035548
       26.564732       0.99718302     0.0010059715
       26.781312       0.99714074     0.0010321044
       26.999657       0.99709816     0.0010590170
       27.219783       0.99705492     0.0010864620
       27.441703       0.99701138     0.0011146791
       27.665432       0.99696718     0.0011434485
       27.890986       0.99692266     0.0011729768
       28.118378       0.99687746     0.0012030893
       28.347625       0.99683181     0.0012341205
       28.578740       0.99678548     0.0012657763
       28.811740       0.99673883     0.0012984224
       29.046639       0.99669150     0.0013317353
       29.283454       0.99664389     0.0013660751
       29.522199       0.99659562     0.0014011269
       29.762891       0.99654714     0.0014372489
       30.005545       0.99649800     0.0014741299
       30.250177       0.99644873     0.0015121271
       30.496804       0.99639886     0.0015509374
       30.745441       0.99634904     0.0015909191
       30.996106       0.99629877     0.0016317217
       31.248814       0.99624906     0.0016735285
       31.503583       0.99619882     0.0017157803
       31.760428       0.99614854     0.0017574195
       32.019368       0.99609741     0.0017998742
       32.280419       0.99604507     0.0018432175
       32.543598       0.99599199     0.0018874681
       32.808923       0.99593821     0.0019328127
       33.076411       0.99588374     0.0019791444
       33.346079       0.99582872     0.0020266894
       33.617947       0.99577304     0.0020752805
       33.892031       0.99571689     0.0021251331
       34.168349       0.99566012     0.0021760934
       34.446920       0.99560292     0.0022283602
       34.727763       0.99554514     0.0022818019
       35.010895       0.99548698     0.0023366020
       35.296335       0.99542829     0.0023926464
       35.584103       0.99536925     0.0024501024
       35.874217       0.99530974     0.0025088741
       36.166696       0.99524994     0.0025691084
       36.461559       0.99518974     0.0026307465
       36.758827       0.99512931     0.0026939171
       37.058518       0.99506859     0.0027585628
       37.360653       0.99500771     0.0028247835
       37.665250       0.99494667     0.0028925738
       37.972331       0.99488558     0.0029620089
       38.281916       0.99482453     0.0030331058
       38.594025       0.99476358     0.0031059110
       38.908678       0.99470343     0.0031804725
       39.225897       0.99464403     0.0032568023
       39.545702       0.99458594     0.0033339804
       39.868114       0.99452891     0.0034120992
       40.193155       0.99447133     0.0034886989
       40.520846       0.99441316     0.0035643872
       40.851209       0.99435353     0.0036417811
       41.184265       0.99429263     0.0037208199
       41.520036       0.99423119     0.0038016576
       41.858545       0.99416913     0.0038842038
       42.199813       0.99410691     0.0039686492
       42.543864       0.99404428     0.0040548682
       42.890720       0.99398189     0.0041430761
       43.240404       0.99391926     0.0042331163
       43.592939       0.99385750     0.0043252524
       43.948348       0.99379577     0.0044192905
       44.306655       0.99373532     0.0045130106
       44.667883       0.99367504     0.0046075871
       45.032056       0.99361346     0.0047035615
       45.399198       0.99355098     0.0048011579
       45.769333       0.99348839     0.0049009237
       46.142486       0.99342532     0.0050026277
       46.518681       0.99336263     0.0051065953
       46.897943       0.99329958     0.0052125655
       47.280298       0.99323729     0.0053209201
       47.665769       0.99317471     0.0054313511
       48.054384       0.99311341     0.0055442702
       48.446167       0.99305193     0.0056593364
       48.841143       0.99299366     0.0057770286
       49.239341       0.99293555     0.0058969478
       49.640784       0.99288154     0.0060156428
       50.045501       0.99282780     0.0061359778
       50.453517       0.99277170     0.0062541891
       50.864859       0.99271496     0.0063740036
       51.279556       0.99265713     0.0064963308
       51.697633       0.99259879     0.0066208409
       52.119119       0.99254015     0.0067480096
       52.544041       0.99248106     0.0068774390
       52.972427       0.99242196     0.0070106802
       53.404306       0.99236243     0.0071463142
       53.839707       0.99230564     0.0072877253
       54.278657       0.99224858     0.0074316774
       54.721185       0.99219546     0.0075788833
       55.167322       0.99214226     0.0077287400
       55.617096       0.99209308     0.0078819874
       56.070536       0.99204411     0.0080380145
       56.527674       0.99199998     0.0081975557
       56.988539       0.99195665     0.0083600119
       57.453161       0.99192135     0.0085260966
       57.921571       0.99188742     0.0086942816
       58.393800       0.99186277     0.0088588925
       58.869879       0.99183856     0.0090260015
       59.349839       0.99181467     0.0091936768
       59.833713       0.99179251     0.0093643351
       60.321531       0.99177717     0.0095383373
       60.813327       0.99176576     0.0097154484
       61.309132       0.99176920     0.0098960279
       61.808979       0.99177990      0.010079852
       62.312902       0.99181480      0.010267280
       62.820933       0.99185480      0.010435391
       63.333106       0.99190717      0.010532514
       63.849455       0.99194775      0.010629050
       64.370013       0.99194977      0.010722016
       64.894816       0.99194556      0.010816336
       65.423897       0.99192356      0.010912794
       65.957292       0.99189443      0.011010736
       66.495035       0.99184833      0.011110886
       67.037163       0.99178818      0.011213937
       67.583710       0.99169918      0.011321924
       68.134713       0.99160762      0.011469117
       68.690209       0.99151219      0.011687853
       69.250234       0.99143906      0.011906828
       69.814824       0.99140401      0.012123693
       70.384018       0.99137674      0.012343907
       70.957852       0.99136114      0.012567335
       71.536364       0.99135883      0.012794891
       72.119593       0.99137450      0.013026750
       72.707578       0.99140768      0.013250433
       73.300355       0.99146240      0.013462960
       73.897966       0.99151204      0.013661410
       74.500449       0.99155560      0.013843431
       75.107844       0.99159744      0.014027965
       75.720191       0.99163750      0.014215045
       76.337530       0.99168077      0.014404700
       76.959903       0.99172724      0.014596980
       77.587350       0.99177957      0.014791885
       78.219912       0.99183731      0.014989479
       78.857631       0.99190519      0.015189801
       79.500550       0.99198160      0.015392925
       80.148710       0.99207337      0.015598500
       80.802155       0.99217693      0.015806718
       81.460927       0.99229290      0.015994260
       82.125070       0.99241820      0.016169602
       82.794628       0.99254807      0.016347404
       83.469644       0.99268240      0.016527571
       84.150164       0.99283406      0.016710294
       84.836232       0.99299696      0.016895456
       85.527894       0.99319025      0.017083207
       86.225195       0.99340065      0.017273433
       86.928180       0.99366829      0.017466410
       87.636897       0.99396384      0.017661962
       88.351392       0.99437163      0.017848565
       89.071713       0.99482724      0.018033329
       89.797906       0.99555535      0.018197103
       90.530020       0.99638338      0.018355263
       91.268102       0.99958574      0.018514995
       92.012202        1.0008893      0.012373792
       92.762369       0.99770864      0.012519476
       93.518651       0.99590105      0.012667037
       94.281100       0.99506532      0.012816351
       95.049764       0.99441004      0.012967595
       95.824696       0.99395577      0.013120604
       96.605945       0.99352670      0.013275595
       97.393564       0.99319022      0.013432382
       98.187605       0.99285994      0.013591209
       98.988119       0.99258463      0.013752002
       99.795159       0.99230982      0.013914909
       100.60878       0.99207206      0.014079664
       101.42903       0.99183264      0.014246578
       102.25597       0.99162097      0.014415547
       103.08966       0.99140671      0.014586751
       103.93014       0.99121499      0.014759942
       104.77747       0.99102036      0.014935425
       105.63171       0.99084587      0.015112996
       106.49292       0.99066898      0.015292924
       107.36114       0.99051259      0.015475006
       108.23645       0.99035535      0.015659288
       109.11889       0.99022765      0.015841936
       110.00852       0.99009893      0.016022899
       110.90541       0.98997845      0.016156114
       111.80961       0.98985443      0.016290271
       112.72119       0.98971128      0.016423899
       113.64019       0.98956543      0.016558667
       114.56669       0.98941346      0.016694816
       115.50074       0.98925900      0.016832165
       116.44241       0.98910124      0.016971064
       117.39175       0.98894099      0.017111152
       118.34883       0.98877797      0.017252564
       119.31372       0.98861242      0.017395250
       120.28647       0.98844429      0.017539487
       121.26716       0.98827356      0.017685005
       122.25584       0.98810015      0.017831988
       123.25258       0.98792401      0.017980299
       124.25744       0.98774502      0.018130159
       125.27050       0.98756311      0.018281388
       126.29182       0.98737798      0.018434182
       127.32147       0.98718937      0.018588394
       128.35951       0.98699633      0.018744207
       129.40601       0.98679900      0.018902556
       130.46104       0.98659584      0.019064913
       131.52468       0.98639038      0.019231235
       132.59699       0.98618346      0.019404012
       133.67804       0.98597495      0.019579548
       134.76790       0.98576613      0.019758726
       135.86665       0.98555538      0.019939659
       136.97436       0.98534349      0.020122353
       138.09110       0.98512911      0.020306830
       139.21694       0.98491255      0.020493098
       140.35196       0.98469316      0.020681194
       141.49624       0.98447107      0.020871130
       142.64984       0.98424572      0.021062937
       143.81285       0.98401710      0.021256624
       144.98535       0.98378362      0.021452207
       146.16740       0.98354509      0.021649696
       147.35909       0.98329959      0.021852237
       148.56049       0.98304707      0.022059862
       149.77169       0.98279548      0.022278161
       150.99277       0.98254436      0.022506422
       152.22379       0.98229523      0.022737103
       153.46486       0.98204706      0.022970273
       154.71604       0.98179919      0.023205914
       155.97743       0.98155057      0.023444115
       157.24910       0.98130220      0.023684830
       158.53114       0.98105279      0.023928170
       159.82362       0.98080441      0.024173242
       161.12665       0.98055524      0.024420488
       162.44030       0.98030592      0.024668987
       163.76466       0.98005493      0.024919464
       165.09982       0.97980618      0.025172496
       166.44586       0.97955678      0.025428265
       167.80288       0.97931391      0.025686602
       169.17096       0.97907211      0.025947734
       170.55019       0.97883167      0.026186951
       171.94067       0.97858988      0.026418982
       173.34249       0.97833435      0.026650981
       174.75573       0.97807179      0.026884384
       176.18050       0.97780244      0.027119955
       177.61688       0.97752844      0.027357721
       179.06498       0.97724978      0.027597724
       180.52487       0.97696704      0.027839973
       181.99668       0.97668108      0.028084489
       183.48048       0.97639134      0.028331289
       184.97638       0.97609978      0.028580398
       186.48447       0.97580464      0.028831838
       188.00486       0.97550992      0.029085643
       189.53765       0.97521190      0.029341821
       191.08293       0.97491926      0.029600420
       192.64081       0.97462391      0.029861439
       194.21139       0.97434775      0.030113337
       195.79478       0.97407034      0.030366358
       197.39107       0.97378034      0.030575180
       199.00038       0.97348609      0.030782092
       200.62281       0.97316758      0.030984284
       202.25847       0.97284404      0.031187109
       203.90747       0.97249860      0.031388671
       205.56990       0.97214798      0.031591005
       207.24590       0.97178255      0.031795425
       208.93555       0.97141163      0.032000685
       210.63898       0.97102845      0.032207972
       212.35630       0.97063937      0.032416144
       214.08762       0.97023958      0.032626369
       215.83306       0.96983357      0.032837537
       217.59272       0.96941801      0.033050774
       219.36674       0.96899605      0.033265000
       221.15521       0.96856585      0.033481247
       222.95827       0.96812925      0.033698539
       224.77603       0.96768624      0.033917910
       226.60860       0.96723750      0.034137989
       228.45612       0.96678682      0.034358001
       230.31870       0.96632959      0.034576631
       232.19647       0.96586614      0.034785850
       234.08954       0.96539624      0.034992302
       235.99805       0.96492107      0.035186230
       237.92212       0.96443372      0.035378079
       239.86188       0.96392147      0.035562522
       241.81745       0.96339849      0.035747344
       243.78896       0.96285878      0.035933679
       245.77655       0.96230853      0.036120485
       247.78034       0.96174399      0.036308838
       249.80047       0.96116899      0.036497662
       251.83707       0.96058111      0.036687860
       253.89028       0.95998285      0.036878619
       255.96022       0.95937275      0.037070804
       258.04704       0.95875265      0.037263614
       260.15087       0.95812207      0.037457766
       262.27186       0.95748260      0.037652614
       264.41013       0.95683489      0.037848791
       266.56584       0.95618425      0.038045678
       268.73913       0.95553465      0.038243770
       270.93013       0.95488358      0.038416829
       273.13900       0.95423448      0.038554405
       275.36588       0.95355116      0.038681370
       277.61091       0.95282641      0.038795067
       279.87424       0.95207721      0.038908899
       282.15603       0.95130113      0.039023252
       284.45642       0.95050517      0.039136695
       286.77557       0.94968866      0.039249256
       289.11362       0.94884983      0.039359989
       291.47073       0.94798873      0.039468801
       293.84707       0.94710558      0.039578092
       296.24277       0.94620104      0.039687423
       298.65801       0.94527480      0.039797389
       301.09294       0.94432790      0.039907282
       303.54772       0.94335971      0.040017898
       306.02252       0.94237139      0.040128287
       308.51749       0.94136244      0.040239666
       311.03281       0.94033391      0.040350746
       313.56863       0.93928645      0.040462738
       316.12512       0.93822038      0.040574136
       318.70246       0.93714109      0.040686809
       321.30081       0.93604608      0.040798879
       323.92034       0.93495814      0.040898479
       326.56123       0.93386395      0.040990520
       329.22366       0.93272378      0.041005798
       331.90778       0.93155288      0.040985309
       334.61380       0.93031362      0.040967620
       337.34187       0.92903514      0.040947265
       340.09219       0.92770318      0.040929892
       342.86492       0.92633778      0.040909526
       345.66027       0.92492495      0.040892421
       348.47840       0.92348057      0.040872054
       351.31951       0.92198960      0.040855232
       354.18379       0.92046705      0.040834877
       357.07142       0.91889946      0.040816206
       359.98258       0.91730024      0.040793254
       362.91749       0.91565032      0.040771124
       365.87632       0.91396706      0.040744203
       368.85927       0.91223678      0.040721756
       371.86655       0.91047312      0.040694808
       374.89834       0.90866128      0.040652101
       377.95485       0.90681509      0.040601843
       381.03628       0.90489280      0.040548653
       384.14283       0.90293224      0.040489064
       387.27471       0.90089893      0.040435474
       390.43212       0.89882664      0.040375863
       393.61528       0.89668037      0.040327127
       396.82438       0.89449392      0.040272311
       400.05966       0.89223494      0.040226758
       403.32130       0.88993376      0.040175135
       406.60954       0.88755376      0.040134306
       409.92459       0.88512852      0.040087780
       413.26667       0.88262465      0.040049557
       774.875      0.730000      0.537000
       826.533      0.748000      0.628000
       885.571      0.759000      0.718000
       953.692      0.780000      0.825000
       1033.17      0.822000      0.938000
       1127.09      0.873000       1.04000
       1180.76      0.875000       1.10400
       1246.03      0.998000       1.22400
       1305.05       1.07600       1.18300
       1369.94       1.04700       1.15100
       1458.59      0.943000       1.22400
       1540.12      0.872000       1.40100
       1653.07      0.944000       1.65200
       1771.14       1.05400       1.87600
       1836.74       1.20000       1.96800
       1892.82       1.30100       1.89600
       1937.19       1.20700       1.83600
       2066.33      0.906000       2.28100
       2066.33       1.30900       2.69000
       2087.21       1.32700       2.76600
       2101.36       1.32700       2.80300
       2122.95       1.34200       2.88200
       2137.59       1.34800       2.93400
       2137.59      0.988000       2.65700
       2159.93       1.36800       3.02800
       2175.09       1.38500       3.09600
       2198.23       1.41800       3.21100
       2213.93       1.44400       3.29700
       2237.91       1.49400       3.44100
       2254.18       1.54300       3.55600
       2279.04       1.66000       3.75200
       2295.93       1.77800       3.88900
       2304.46       1.85100       3.95500
       2313.06       1.93600       4.01900
       2321.72       2.02800       4.07700
       2330.45       2.13400       4.12800
       2339.25       2.24800       4.16800
       2348.11       2.36800       4.19200
       2357.03       2.49000       4.20100
       2366.03       2.60700       4.19700
       2375.10       2.71800       4.18500
       2384.23       2.82500       4.17000
       2393.44       2.93000       4.15000
       2402.71       3.03600       4.12300
       2412.06       3.14400       4.08600
       2421.48       3.24800       4.03600
       2430.98       3.34200       3.97500
       2440.55       3.42400       3.90900
       2450.20       3.49800       3.83900
       2459.92       3.56100       3.76800
       2469.72       3.61500       3.69800
       2479.60       3.66100       3.63100
       2489.56       3.70100       3.56700
       2499.60       3.73900       3.50900
       2509.72       3.77400       3.45400
       2519.92       3.80600       3.40400
       2530.20       3.84400       3.35800
       2540.57       3.88000       3.31600
       2551.03       3.92300       3.26900
       2561.57       3.97000       3.21800
       2572.20       4.01800       3.16200
       2582.92       4.06200       3.09600
       2593.72       4.10000       3.02400
       2604.62       4.13200       2.94900
       2615.61       4.15700       2.87100
       2626.70       4.17300       2.79100
       2637.87       4.18100       2.71200
       2649.15       4.18100       2.63400
       2660.52       4.17300       2.56000
       2671.98       4.15800       2.49100
       2683.55       4.13700       2.42700
       2695.22       4.11300       2.37100
       2730.84       4.03100       2.24100
       2755.11       3.97800       2.18000
       2792.34       3.90700       2.11700
       2817.73       3.86700       2.09000
       2856.68       3.81700       2.06600
       2883.26       3.79200       2.05800
       2924.06       3.76500       2.05700
       2951.90       3.75400       2.06300
       2994.69       3.74800       2.08200
       3023.90       3.75200       2.10000
       3068.81       3.76900       2.13700
       3099.50       3.79000       2.17100
       3146.70       3.84000       2.24000
       3178.97       3.89000       2.30300
       3195.36       3.92300       2.34300
       3211.92       3.96600       2.38900
       3228.65       4.02100       2.44300
       3245.55       4.09500       2.50200
       3262.63       4.19600       2.56200
       3279.89       4.32800       2.61500
       3297.34       4.49700       2.64900
       3314.97       4.70000       2.64600
       3332.80       4.92700       2.58500
       3350.81       5.14900       2.45100
       3369.02       5.32800       2.25000
       3387.43       5.43700       2.01000
       3406.04       5.47200       1.76600
       3424.86       5.45400       1.55000
       3443.89       5.40600       1.36800
       3463.13       5.33900       1.21700
       3482.58       5.26800       1.08900
       3502.26       5.19400      0.982000
       3522.16       5.12100      0.893000
       3542.29       5.05000      0.819000
       3562.64       4.98300      0.752000
       3583.24       4.92000      0.697000
       3604.07       4.86100      0.649000
       3625.15       4.80500      0.605000
       3646.47       4.75100      0.568000
       3668.05       4.70000      0.534000
       3689.88       4.65100      0.503000
       3711.98       4.60400      0.475000
       3734.34       4.56000      0.449000
       3756.97       4.51800      0.426000
       3779.88       4.47900      0.407000
       3803.07       4.44200      0.388000
       3826.54       4.40600      0.369000
       3850.31       4.37200      0.353000
       3874.38       4.33900      0.337000
       3898.74       4.30800      0.323000
       3923.42       4.27800      0.310000
       3948.41       4.24900      0.298000
       3973.72       4.22200      0.285000
       3999.35       4.19600      0.275000
       4025.32       4.17100      0.264000
       4051.63       4.14700      0.253000
       4078.29       4.12400      0.244000
       4105.30       4.10200      0.233000
       4132.67       4.08100      0.224000
       4160.40       4.06000      0.218000
       4188.51       4.04100      0.208000
       4217.01       4.02300      0.202000
       4245.89       4.00600      0.194000
       4275.17       3.99000      0.183000
       4304.86       3.97600      0.176000
       4334.97       3.96400      0.165000
       4365.49       3.95200      0.152000
       4396.45       3.93600      0.135000
       4427.86       3.91900      0.118000
       4459.71       3.90400      0.103000
       4492.03       3.89600     0.0850000
       4524.82       3.86900     0.0570000
       4558.09       3.83500     0.0350000
       4591.85       3.80500     0.0270000
       4696.21       3.73000     0.0150000
       4730.26       3.73000    0.00637000
       4768.46       3.69100       0.00000
       4881.10       3.63800       0.00000
       4959.20       3.60500    0.00254000
       4999.19       3.59000    0.00247000
       4999.19       3.45950       0.00000
       5081.15       3.56100       0.00000
       5165.83       3.53500       0.00000
       5298.29       3.49700       0.00000
       5390.44       3.47400   0.000248000
       5437.72       3.46300   0.000130000
       5449.67       3.45220       0.00000
       5485.84       3.45200   6.20000e-05
       5500.44       3.44110   4.20000e-05
       5534.82       3.44100   2.70000e-05
       5584.68       3.43000   3.10000e-06
       5599.82       3.42030       0.00000
       5635.45       3.42100   1.40000e-06
       5687.16       3.41100   2.80000e-07
       5700.23       3.40120       0.00000
       5793.46       3.39300       0.00000
       5798.88       3.38370       0.00000
       5901.00       3.36750       0.00000
       5903.81       3.37500       0.00000
       6000.97       3.35240       0.00000
       6077.45       3.35000       0.00000
       6098.38       3.33840       0.00000
       6199.00       3.32540       0.00000
       6199.00       3.33400       0.00000
       6299.80       3.31320       0.00000
       6390.72       3.31100       0.00000
       6400.62       3.30180       0.00000
       6501.31       3.29120       0.00000
       6525.26       3.29500       0.00000
       6598.19       3.28110       0.00000
       6698.00       3.27160       0.00000
       6738.04       3.27500       0.00000
       6800.88       3.26260       0.00000
       6887.78       3.26200       0.00000
       6899.28       3.25410       0.00000
       7000.56       3.24620       0.00000
       7125.29       3.24500       0.00000
       7292.94       3.23400       0.00000
       7559.76       3.21900       0.00000
       7748.75       3.20900       0.00000
       7998.71       3.18300       0.00000
       8050.65       3.19100       0.00000
       8265.33       3.17800       0.00000
       8997.10       3.14300       0.00000
       9998.39       3.11920       0.00000
       11000.9       3.09810       0.00000
       12001.9       3.08440       0.00000
       13999.5       3.06460       0.00000
       15999.5       3.05090       0.00000
       17999.4       3.04390       0.00000
       20000.0       3.03790       0.00000
       21997.9       3.03310       0.00000
       23999.2       3.02960       0.00000
       25997.1       3.02710       0.00000
       27999.1       3.02360       0.00000
       29997.6       3.02150       0.00000
       33995.1       3.01810       0.00000
       35998.8       3.01660       0.00000
       37995.7       3.01590   0.000169000
       39993.5       3.01370   0.000153000
       49991.9       3.00400       0.00000
       55004.4       3.00100       0.00000
       60009.7       2.99800       0.00000
       65013.1       2.99500   0.000429000
       70005.6       2.99200       0.00000
       75003.0       2.98000       0.00000
       79987.1       2.98400       0.00000
       84976.0       2.98000       0.00000
       89971.0       2.97500       0.00000
       95003.8       2.97000       0.00000
       99983.9       2.96400       0.00000
       110009.       2.95100       0.00000
       120019.       2.93600    0.00229000
       129999.       2.91800       0.00000
       139995.       2.89600       0.00000
       149988.       2.87100       0.00000
       159995.       2.84100    0.00449000
       169999.       2.80300       0.00000
       179994.       2.75500       0.00000
       189979.       2.69400       0.00000
       200000.       2.61500    0.00716000
       209993.       2.51100       0.00000
       219979.       2.35400       0.00000
       299976.       4.73200       0.00000
       309950.       4.33900       0.00000
       319948.       4.11500       0.00000
       329997.       3.97100       0.00000
       339951.       3.86900       0.00000
       350028.       3.79300     0.0167000
       399936.       3.59400     0.0181000
       450018.       3.50800     0.0111000
       499919.       3.46100    0.00577000
       543772.       3.44400       0.00000
       570548.       3.43020    0.00567000
       596058.       3.42380    0.00403000
       617123.       3.41340    0.00367000
       666918.       3.40100    0.00531000
       717892.       3.39220    0.00434000
       777792.       3.38300    0.00384000
       849760.       3.37540    0.00365000
       909611.       3.37060    0.00377000
   1.06147e+06       3.36210    0.00426000
   1.13743e+06       3.35840    0.00353000
   1.38758e+06       3.35220    0.00381000
   1.68451e+06       3.34630    0.00295000
   1.88792e+06       3.34500    0.00300000
   2.16597e+06       3.34380    0.00319000
   2.96178e+06       3.33990    0.00453000
   3.66047e+06       3.34070    0.00393000
   3.99935e+06       3.33310       0.00000
   4.99919e+06       3.33260       0.00000
   6.00097e+06       3.33230       0.00000
   7.00056e+06       3.33210       0.00000
   7.99871e+06       3.33200       0.00000
   8.99710e+06       3.33195       0.00000
   9.99839e+06       3.33190       0.00000
