;  Optical constants for Ge
;  
;  Concatenation of:
;
;  Ge_llnl_cxro + Ge_palik
;
;    Lambda (A)            n            k
;-----------------------------------------
      0.12398000       0.99999990    2.0026980e-10
      0.12499080       0.99999990    2.0696237e-10
      0.12600983       0.99999990    2.1388710e-10
      0.12703718       0.99999990    2.2104623e-10
      0.12807290       0.99999990    2.2842292e-10
      0.12911707       0.99999989    2.3606329e-10
      0.13016975       0.99999989    2.4393217e-10
      0.13123101       0.99999989    2.5207859e-10
      0.13230092       0.99999989    2.6049905e-10
      0.13337956       0.99999989    2.6919209e-10
      0.13446699       0.99999989    2.7823795e-10
      0.13556329       0.99999988    2.8748486e-10
      0.13666852       0.99999988    2.9714793e-10
      0.13778277       0.99999988    3.0701291e-10
      0.13890610       0.99999988    3.1720562e-10
      0.14003858       0.99999988    3.2772322e-10
      0.14118030       0.99999987    3.3858087e-10
      0.14233133       0.99999987    3.4984054e-10
      0.14349175       0.99999987    3.6137384e-10
      0.14466162       0.99999987    3.7341180e-10
      0.14584103       0.99999987    3.8569733e-10
      0.14703006       0.99999986    3.9850626e-10
      0.14822878       0.99999986    4.1170786e-10
      0.14943728       0.99999986    4.2530595e-10
      0.15065563       0.99999986    4.3938903e-10
      0.15188391       0.99999985    4.5395883e-10
      0.15312220       0.99999985    4.6899482e-10
      0.15437059       0.99999985    4.8454239e-10
      0.15562916       0.99999985    5.0056397e-10
      0.15689799       0.99999984    5.1710261e-10
      0.15817716       0.99999984    5.3418751e-10
      0.15946677       0.99999984    5.5183632e-10
      0.16076688       0.99999984    5.7004063e-10
      0.16207760       0.99999983    5.8896683e-10
      0.16339900       0.99999983    6.0834757e-10
      0.16473118       0.99999983    6.2845372e-10
      0.16607422       0.99999983    6.4923146e-10
      0.16742821       0.99999982    6.7064135e-10
      0.16879323       0.99999982    6.9275362e-10
      0.17016939       0.99999982    7.1561821e-10
      0.17155676       0.99999981    7.3928353e-10
      0.17295545       0.99999981    7.6371839e-10
      0.17436554       0.99999981    7.8886724e-10
      0.17578712       0.99999980    8.1498077e-10
      0.17722030       0.99999980    8.4176734e-10
      0.17866516       0.99999980    8.6958523e-10
      0.18012180       0.99999979    8.9816212e-10
      0.18159031       0.99999979    9.2776080e-10
      0.18307080       0.99999979    9.5823615e-10
      0.18456336       0.99999978    9.8977128e-10
      0.18606809       0.99999978    1.0224040e-09
      0.18758508       0.99999978    1.0560596e-09
      0.18911444       0.99999977    1.0908647e-09
      0.19065628       0.99999977    1.1266432e-09
      0.19221068       0.99999977    1.1638261e-09
      0.19377775       0.99999976    1.2018416e-09
      0.19535760       0.99999976    1.2415115e-09
      0.19695034       0.99999975    1.2820762e-09
      0.19855605       0.99999975    1.3242211e-09
      0.20017486       0.99999975    1.3677888e-09
      0.20180687       0.99999974    1.4125716e-09
      0.20345218       0.99999974    1.4589914e-09
      0.20511091       0.99999973    1.5069976e-09
      0.20678315       0.99999973    1.5562731e-09
      0.20846904       0.99999972    1.6072411e-09
      0.21016867       0.99999972    1.6600757e-09
      0.21188215       0.99999971    1.7139960e-09
      0.21360961       0.99999971    1.7700407e-09
      0.21535114       0.99999971    1.8279221e-09
      0.21710688       0.99999970    1.8878781e-09
      0.21887693       0.99999970    1.9495619e-09
      0.22066141       0.99999969    2.0133300e-09
      0.22246045       0.99999969    2.0793330e-09
      0.22427414       0.99999968    2.1473312e-09
      0.22610263       0.99999967    2.2173532e-09
      0.22794602       0.99999967    2.2898730e-09
      0.22980444       0.99999966    2.3640496e-09
      0.23167802       0.99999966    2.4411065e-09
      0.23356687       0.99999965    2.5207774e-09
      0.23547111       0.99999965    2.6030353e-09
      0.23739089       0.99999964    2.6879488e-09
      0.23932631       0.99999964    2.7756025e-09
      0.24127752       0.99999963    2.8660743e-09
      0.24324463       0.99999962    2.9594511e-09
      0.24522778       0.99999962    3.0559996e-09
      0.24722710       0.99999961    3.1557528e-09
      0.24924272       0.99999960    3.2584442e-09
      0.25127477       0.99999960    3.3642578e-09
      0.25332339       0.99999959    3.4734266e-09
      0.25538871       0.99999958    3.5862182e-09
      0.25747087       0.99999958    3.7028558e-09
      0.25957000       0.99999957    3.8230275e-09
      0.26168625       0.99999956    3.9468800e-09
      0.26381975       0.99999956    4.0746034e-09
      0.26597065       0.99999955    4.2069014e-09
      0.26813908       0.99999954    4.3433802e-09
      0.27032520       0.99999953    4.4842787e-09
      0.27252913       0.99999953    4.6297645e-09
      0.27475103       0.99999952    4.7798754e-09
      0.27699105       0.99999951    4.9348915e-09
      0.27924933       0.99999950    5.0941524e-09
      0.28152603       0.99999950    5.2594189e-09
      0.28382128       0.99999949    5.4294681e-09
      0.28613525       0.99999948    5.6058494e-09
      0.28846808       0.99999947    5.7860653e-09
      0.29081993       0.99999946    5.9737256e-09
      0.29319096       0.99999945    6.1654171e-09
      0.29558132       0.99999944    6.3658067e-09
      0.29799117       0.99999943    6.5702970e-09
      0.30042066       0.99999942    6.7827039e-09
      0.30286996       0.99999942    7.0011759e-09
      0.30533923       0.99999941    7.2276192e-09
      0.30782863       0.99999940    7.4611289e-09
      0.31033833       0.99999939    7.7000960e-09
      0.31286848       0.99999938    7.9478619e-09
      0.31541927       0.99999937    8.2034290e-09
      0.31799085       0.99999936    8.4662183e-09
      0.32058340       0.99999934    8.7390741e-09
      0.32319709       0.99999933    9.0198000e-09
      0.32583208       0.99999932    9.3091539e-09
      0.32848856       0.99999931    9.6085040e-09
      0.33116670       0.99999930    9.9159589e-09
      0.33386667       0.99999929    1.0234380e-08
      0.33658865       0.99999928    1.0562725e-08
      0.33933282       0.99999927    1.0900590e-08
      0.34209937       0.99999925    1.1251037e-08
      0.34488847       0.99999924    1.1611014e-08
      0.34770032       0.99999923    1.1983195e-08
      0.35053508       0.99999922    1.2367686e-08
      0.35339296       0.99999920    1.2764428e-08
      0.35627414       0.99999919    1.3172559e-08
      0.35917881       0.99999918    1.3592423e-08
      0.36210716       0.99999916    1.4027338e-08
      0.36505938       0.99999915    1.4474761e-08
      0.36803568       0.99999913    1.4937291e-08
      0.37103624       0.99999912    1.5413228e-08
      0.37406126       0.99999911    1.5906553e-08
      0.37711095       0.99999909    1.6413138e-08
      0.38018549       0.99999908    1.6933308e-08
      0.38328511       0.99999906    1.7471624e-08
      0.38641000       0.99999905    1.8027979e-08
      0.38956036       0.99999903    1.8600000e-08
      0.39273641       0.99999901    1.9190806e-08
      0.39593835       0.99999900    1.9800428e-08
      0.39916640       0.99999898    2.0430356e-08
      0.40242076       0.99999896    2.1077486e-08
      0.40570166       0.99999895    2.1749259e-08
      0.40900931       0.99999893    2.2534089e-08
      0.41234392       0.99999891    2.3516561e-08
      0.41570572       0.99999889    2.4340837e-08
      0.41909493       0.99999888    2.5113230e-08
      0.42251177       0.99999886    2.5914121e-08
      0.42595647       0.99999884    2.6735650e-08
      0.42942925       0.99999882    2.7587874e-08
      0.43293034       0.99999880    2.8461577e-08
      0.43645998       0.99999878    2.9368276e-08
      0.44001840       0.99999876    3.0297353e-08
      0.44360583       0.99999874    3.1262098e-08
      0.44722250       0.99999872    3.2250165e-08
      0.45086866       0.99999870    3.3276463e-08
      0.45454455       0.99999868    3.4327028e-08
      0.45825041       0.99999866    3.5418789e-08
      0.46198648       0.99999863    3.6535817e-08
      0.46575301       0.99999861    3.7697167e-08
      0.46955025       0.99999859    3.8884730e-08
      0.47337845       0.99999857    4.0120145e-08
      0.47723786       0.99999854    4.1382863e-08
      0.48112873       0.99999852    4.2696699e-08
      0.48505133       0.99999849    4.4038862e-08
      0.48900590       0.99999847    4.5436158e-08
      0.49299272       0.99999844    4.6862844e-08
      0.49701204       0.99999842    4.8348628e-08
      0.50106413       0.99999839    4.9865360e-08
      0.50514926       0.99999837    5.1444924e-08
      0.50926770       0.99999834    5.3057807e-08
      0.51341971       0.99999831    5.4736480e-08
      0.51760557       0.99999828    5.6451440e-08
      0.52182555       0.99999826    5.8235318e-08
      0.52607995       0.99999823    6.0058659e-08
      0.53036903       0.99999820    6.1954203e-08
      0.53469307       0.99999817    6.3892592e-08
      0.53905238       0.99999814    6.5906377e-08
      0.54344722       0.99999811    6.7966721e-08
      0.54787789       0.99999808    7.0106429e-08
      0.55234469       0.99999805    7.2296584e-08
      0.55684790       0.99999801    7.4569624e-08
      0.56138783       0.99999798    7.6897386e-08
      0.56596477       0.99999795    7.9312086e-08
      0.57057902       0.99999792    8.1785984e-08
      0.57523090       0.99999788    8.4350201e-08
      0.57992070       0.99999785    8.6978594e-08
      0.58464874       0.99999781    8.9702335e-08
      0.58941532       0.99999778    9.2495490e-08
      0.59422077       0.99999774    9.5387865e-08
      0.59906539       0.99999770    9.8355314e-08
      0.60394951       0.99999767    1.0142647e-07
      0.60887346       0.99999763    1.0457876e-07
      0.61383754       0.99999759    1.0783958e-07
      0.61884210       0.99999755    1.1118802e-07
      0.62388746       0.99999751    1.1464977e-07
      0.62897395       0.99999747    1.1820607e-07
      0.63410192       0.99999743    1.2188046e-07
      0.63927169       0.99999739    1.2565717e-07
      0.64448361       0.99999735    1.2955774e-07
      0.64973802       0.99999730    1.3356844e-07
      0.65503527       0.99999726    1.3770798e-07
      0.66037571       0.99999721    1.4196609e-07
      0.66575969       0.99999717    1.4635915e-07
      0.67118757       0.99999712    1.5087977e-07
      0.67665969       0.99999708    1.5554064e-07
      0.68217644       0.99999703    1.6033874e-07
      0.68773815       0.99999698    1.6528341e-07
      0.69334522       0.99999693    1.7037635e-07
      0.69899799       0.99999688    1.7562266e-07
      0.70469686       0.99999683    1.8102727e-07
      0.71044218       0.99999678    1.8659058e-07
      0.71623435       0.99999673    1.9232537e-07
      0.72207374       0.99999668    1.9822681e-07
      0.72796073       0.99999663    2.0431171e-07
      0.73389573       0.99999657    2.1056934e-07
      0.73987911       0.99999652    2.1702406e-07
      0.74591127       0.99999646    2.2365915e-07
      0.75199261       0.99999641    2.3050546e-07
      0.75812354       0.99999635    2.3753937e-07
      0.76430445       0.99999629    2.4479878e-07
      0.77053575       0.99999623    2.5225330e-07
      0.77681785       0.99999617    2.5995120e-07
      0.78315117       0.99999611    2.6785311e-07
      0.78953613       0.99999605    2.7601523e-07
      0.79597314       0.99999599    2.8438880e-07
      0.80246263       0.99999593    2.9304042e-07
      0.80900503       0.99999586    3.0191159e-07
      0.81560077       0.99999580    3.1108065e-07
      0.82225028       0.99999573    3.2047844e-07
      0.82895401       0.99999566    3.3019502e-07
      0.83571239       0.99999560    3.4014929e-07
      0.84252588       0.99999553    3.5044205e-07
      0.84939491       0.99999546    3.6098083e-07
      0.85631994       0.99999539    3.7188523e-07
      0.86330144       0.99999532    3.8304671e-07
      0.87033985       0.99999525    3.9459466e-07
      0.87743565       0.99999517    4.0640872e-07
      0.88458929       0.99999510    4.1863755e-07
      0.89180126       0.99999503    4.3114313e-07
      0.89907203       0.99999495    4.4408777e-07
      0.90640208       0.99999488    4.5731896e-07
      0.91379189       0.99999480    4.7102238e-07
      0.92124195       0.99999472    4.8502423e-07
      0.92875274       0.99999464    4.9952452e-07
      0.93632477       0.99999456    5.1433369e-07
      0.94395854       0.99999449    5.2967675e-07
      0.95165454       0.99999441    5.4534075e-07
      0.95941329       0.99999433    5.6156577e-07
      0.96723529       0.99999424    5.7812320e-07
      0.97512107       0.99999416    5.9528493e-07
      0.98307114       0.99999408    6.1279675e-07
      0.99108602       0.99999400    6.3093356e-07
      0.99916625       0.99999392    6.4944661e-07
       1.0073124       0.99999384    6.6861429e-07
       1.0155249       0.99999376    6.8818584e-07
       1.0238044       0.99999368    7.0842647e-07
       1.0321513       0.99999360    7.2910131e-07
       1.0405664       0.99999353    7.5048342e-07
       1.0490500       0.99999345    7.7233031e-07
       1.0576028       0.99999338    7.9490214e-07
       1.0662253       0.99999332    8.1797157e-07
       1.0749182       0.99999327    8.4179650e-07
       1.0836819       0.99999322    8.6615491e-07
       1.0925170       0.99999321    8.9129850e-07
       1.1014242       0.99999338    9.1702678e-07
       1.1104040       0.99999432    9.4362841e-07
       1.1194570       0.99999368    1.2786193e-07
       1.1285839       0.99999317    1.3194270e-07
       1.1377851       0.99999273    1.3612714e-07
       1.1470613       0.99999252    1.4046397e-07
       1.1564132       0.99999232    1.4491322e-07
       1.1658413       0.99999214    1.4952231e-07
       1.1753463       0.99999197    1.5425311e-07
       1.1849288       0.99999180    1.5915096e-07
       1.1945894       0.99999163    1.6418074e-07
       1.2043288       0.99999147    1.6938598e-07
       1.2141476       0.99999130    1.7473365e-07
       1.2240464       0.99999114    1.8026415e-07
       1.2340259       0.99999097    1.8594952e-07
       1.2440868       0.99999080    1.9182745e-07
       1.2542298       0.99999063    1.9787224e-07
       1.2644554       0.99999046    2.0411805e-07
       1.2747644       0.99999029    2.1054346e-07
       1.2851574       0.99999011    2.1717788e-07
       1.2956351       0.99998993    2.2400816e-07
       1.3061983       0.99998975    2.3105951e-07
       1.3168476       0.99998957    2.3832123e-07
       1.3275838       0.99998939    2.4581248e-07
       1.3384074       0.99998920    2.5353155e-07
       1.3493193       0.99998901    2.6149151e-07
       1.3603202       0.99998882    2.6969666e-07
       1.3714108       0.99998862    2.7815293e-07
       1.3825918       0.99998843    2.8687511e-07
       1.3938639       0.99998823    2.9586063e-07
       1.4052279       0.99998802    3.0513188e-07
       1.4166846       0.99998781    3.1467725e-07
       1.4282347       0.99998760    3.2453097e-07
       1.4398790       0.99998739    3.3467165e-07
       1.4516182       0.99998717    3.4514665e-07
       1.4634531       0.99998695    3.5592185e-07
       1.4753845       0.99998673    3.6705396e-07
       1.4874131       0.99998650    3.7849734e-07
       1.4995399       0.99998627    3.9032875e-07
       1.5117655       0.99998604    4.0248665e-07
       1.5240907       0.99998580    4.1506174e-07
       1.5365165       0.99998556    4.2797640e-07
       1.5490436       0.99998531    4.4134190e-07
       1.5616728       0.99998506    4.5506341e-07
       1.5744049       0.99998481    4.6926835e-07
       1.5872409       0.99998455    4.8384310e-07
       1.6001815       0.99998429    4.9893843e-07
       1.6132277       0.99998402    5.1441942e-07
       1.6263801       0.99998375    5.3046064e-07
       1.6396399       0.99998347    5.4690358e-07
       1.6530077       0.99998319    5.6395257e-07
       1.6664845       0.99998291    5.8142063e-07
       1.6800712       0.99998262    5.9953758e-07
       1.6937687       0.99998232    6.1808977e-07
       1.7075778       0.99998202    6.3734583e-07
       1.7214995       0.99998172    6.5705608e-07
       1.7355347       0.99998141    6.7751689e-07
       1.7496844       0.99998110    6.9844929e-07
       1.7639494       0.99998078    7.2018983e-07
       1.7783307       0.99998045    7.4242188e-07
       1.7928292       0.99998012    7.6553618e-07
       1.8074460       0.99997979    7.8916200e-07
       1.8221819       0.99997945    8.1370652e-07
       1.8370380       0.99997910    8.3878038e-07
       1.8520152       0.99997875    8.6484553e-07
       1.8671145       0.99997839    8.9146038e-07
       1.8823369       0.99997803    9.1917661e-07
       1.8976834       0.99997766    9.4746713e-07
       1.9131550       0.99997728    9.7694583e-07
       1.9287528       0.99997690    1.0070373e-06
       1.9444777       0.99997651    1.0382976e-06
       1.9603309       0.99997612    1.0702246e-06
       1.9763133       0.99997571    1.1034268e-06
       1.9924260       0.99997531    1.1373551e-06
       2.0086700       0.99997489    1.1726335e-06
       2.0250465       0.99997447    1.2086974e-06
       2.0415565       0.99997404    1.2461442e-06
       2.0582011       0.99997360    1.2844478e-06
       2.0749815       0.99997316    1.3242273e-06
       2.0918986       0.99997271    1.3649303e-06
       2.1089536       0.99997225    1.4071504e-06
       2.1261477       0.99997178    1.4503807e-06
       2.1434820       0.99997131    1.4952439e-06
       2.1609576       0.99997083    1.5411921e-06
       2.1785757       0.99997034    1.5888005e-06
       2.1963374       0.99996984    1.6375926e-06
       2.2142439       0.99996933    1.6881623e-06
       2.2322964       0.99996882    1.7400147e-06
       2.2504961       0.99996830    1.7937314e-06
       2.2688442       0.99996777    1.8488206e-06
       2.2873419       0.99996722    1.9058139e-06
       2.3059904       0.99996668    1.9642997e-06
       2.3247909       0.99996612    2.0248041e-06
       2.3437447       0.99996555    2.0869431e-06
       2.3628530       0.99996497    2.1512393e-06
       2.3821171       0.99996438    2.2172754e-06
       2.4015383       0.99996379    2.2855065e-06
       2.4211178       0.99996318    2.3556200e-06
       2.4408569       0.99996256    2.4280389e-06
       2.4607570       0.99996194    2.5025087e-06
       2.4808193       0.99996130    2.5794274e-06
       2.5010452       0.99996065    2.6585481e-06
       2.5214360       0.99995999    2.7402020e-06
       2.5419930       0.99995932    2.8242269e-06
       2.5627176       0.99995864    2.9108851e-06
       2.5836112       0.99995795    3.0000958e-06
       2.6046751       0.99995725    3.0920577e-06
       2.6259108       0.99995653    3.1868166e-06
       2.6473196       0.99995580    3.2844937e-06
       2.6689029       0.99995507    3.3851377e-06
       2.6906622       0.99995431    3.4887811e-06
       2.7125989       0.99995355    3.5956732e-06
       2.7347145       0.99995277    3.7057505e-06
       2.7570104       0.99995199    3.8192703e-06
       2.7794880       0.99995118    3.9360556e-06
       2.8021489       0.99995037    4.0565646e-06
       2.8249946       0.99994954    4.1805013e-06
       2.8480265       0.99994870    4.3084476e-06
       2.8712461       0.99994784    4.4399712e-06
       2.8946551       0.99994697    4.5758691e-06
       2.9182550       0.99994609    4.7155318e-06
       2.9420472       0.99994519    4.8598057e-06
       2.9660335       0.99994427    5.0079593e-06
       2.9902152       0.99994335    5.1611270e-06
       3.0145942       0.99994240    5.3183611e-06
       3.0391719       0.99994144    5.4809880e-06
       3.0639499       0.99994047    5.6478472e-06
       3.0889300       0.99993948    5.8204523e-06
       3.1141138       0.99993847    5.9974475e-06
       3.1395029       0.99993745    6.1807110e-06
       3.1650989       0.99993641    6.3685854e-06
       3.1909037       0.99993535    6.5631339e-06
       3.2169188       0.99993427    6.7624586e-06
       3.2431460       0.99993318    6.9689318e-06
       3.2695871       0.99993207    7.1803681e-06
       3.2962437       0.99993095    7.3995079e-06
       3.3231177       0.99992980    7.6238267e-06
       3.3502107       0.99992864    7.8564193e-06
       3.3775247       0.99992745    8.0944095e-06
       3.4050613       0.99992625    8.3412835e-06
       3.4328224       0.99992503    8.5937641e-06
       3.4608099       0.99992379    8.8557220e-06
       3.4890255       0.99992253    9.1234964e-06
       3.5174712       0.99992125    9.4014594e-06
       3.5461488       0.99991995    9.6854674e-06
       3.5750602       0.99991863    9.9804416e-06
       3.6042074       0.99991728    1.0281701e-05
       3.6335921       0.99991592    1.0594696e-05
       3.6632164       0.99991453    1.0914217e-05
       3.6930823       0.99991312    1.1246242e-05
       3.7231916       0.99991169    1.1585100e-05
       3.7535465       0.99991024    1.1937282e-05
       3.7841488       0.99990877    1.2296803e-05
       3.8150006       0.99990727    1.2670238e-05
       3.8461039       0.99990575    1.3051636e-05
       3.8774608       0.99990420    1.3447589e-05
       3.9090734       0.99990263    1.3852170e-05
       3.9409437       0.99990104    1.4271937e-05
       3.9730738       0.99989942    1.4701023e-05
       4.0054659       0.99989778    1.5146046e-05
       4.0381221       0.99989611    1.5601144e-05
       4.0710445       0.99989441    1.6072779e-05
       4.1042353       0.99989269    1.6555342e-05
       4.1376967       0.99989094    1.7055436e-05
       4.1714310       0.99988917    1.7567307e-05
       4.2054403       0.99988737    1.8097391e-05
       4.2397268       0.99988554    1.8640137e-05
       4.2742929       0.99988369    1.9201658e-05
       4.3091408       0.99988181    1.9776815e-05
       4.3442728       0.99987990    2.0371561e-05
       4.3796912       0.99987796    2.0981112e-05
       4.4153984       0.99987599    2.1611421e-05
       4.4513967       0.99987399    2.2257790e-05
       4.4876885       0.99987197    2.2926096e-05
       4.5242762       0.99986991    2.3611402e-05
       4.5611622       0.99986783    2.4318929e-05
       4.5983489       0.99986571    2.5045086e-05
       4.6358388       0.99986357    2.5795160e-05
       4.6736344       0.99986139    2.6564860e-05
       4.7117381       0.99985919    2.7358660e-05
       4.7501524       0.99985695    2.8173755e-05
       4.7888799       0.99985468    2.9014350e-05
       4.8279232       0.99985238    2.9877912e-05
       4.8672848       0.99985004    3.0768222e-05
       4.9069673       0.99984768    3.1683067e-05
       4.9469733       0.99984528    3.2625566e-05
       4.9873055       0.99984285    3.3594616e-05
       5.0279666       0.99984039    3.4592793e-05
       5.0689591       0.99983789    3.5619485e-05
       5.1102858       0.99983537    3.6676516e-05
       5.1519495       0.99983281    3.7763509e-05
       5.1939528       0.99983021    3.8881482e-05
       5.2362986       0.99982759    4.0032081e-05
       5.2789897       0.99982493    4.1215472e-05
       5.3220288       0.99982223    4.2433629e-05
       5.3654187       0.99981950    4.3685709e-05
       5.4091625       0.99981675    4.4974951e-05
       5.4532629       0.99981395    4.6299527e-05
       5.4977228       0.99981112    4.7663868e-05
       5.5425452       0.99980826    4.9064960e-05
       5.5877330       0.99980537    5.0509354e-05
       5.6332893       0.99980245    5.1992419e-05
       5.6792169       0.99979949    5.3519902e-05
       5.7255190       0.99979650    5.5086508e-05
       5.7721986       0.99979348    5.6702020e-05
       5.8192588       0.99979042    5.8358984e-05
       5.8667027       0.99978734    6.0068138e-05
       5.9145333       0.99978422    6.1820360e-05
       5.9627539       0.99978108    6.3627888e-05
       6.0113677       0.99977791    6.5480012e-05
       6.0603778       0.99977472    6.7390508e-05
       6.1097875       0.99977150    6.9346996e-05
       6.1596000       0.99976825    7.1336051e-05
       6.2098186       0.99976497    7.3362577e-05
       6.2604467       0.99976164    7.5474141e-05
       6.3114875       0.99975828    7.7640452e-05
       6.3629444       0.99975490    7.9879865e-05
       6.4148209       0.99975149    8.2171237e-05
       6.4671203       0.99974807    8.4541166e-05
       6.5198461       0.99974460    8.6965245e-05
       6.5730018       0.99974114    8.9474968e-05
       6.6265908       0.99973764    9.2041164e-05
       6.6806168       0.99973415    9.4698125e-05
       6.7350832       0.99973062    9.7413558e-05
       6.7899937       0.99972711    0.00010022624
       6.8453519       0.99972356    0.00010309974
       6.9011614       0.99972004    0.00010607657
       6.9574259       0.99971649    0.00010911646
       7.0141491       0.99971300    0.00011225296
       7.0713348       0.99970946    0.00011545380
       7.1289867       0.99970600    0.00011875120
       7.1871086       0.99970250    0.00012211486
       7.2457044       0.99969907    0.00012553545
       7.3047779       0.99969559    0.00012902478
       7.3643331       0.99969216    0.00013263861
       7.4243738       0.99968869    0.00013632635
       7.4849040       0.99968532    0.00014014393
       7.5459277       0.99968191    0.00014404121
       7.6074489       0.99967863    0.00014807529
       7.6694717       0.99967532    0.00015219507
       7.7320001       0.99967216    0.00015645510
       7.7950384       0.99966899    0.00016080740
       7.8585906       0.99966600    0.00016530807
       7.9226609       0.99966303    0.00016990798
       7.9872536       0.99966029    0.00017466285
       8.0523729       0.99965759    0.00017952445
       8.1180231       0.99965525    0.00018454746
       8.1842086       0.99965301    0.00018966542
       8.2509337       0.99965123    0.00019486529
       8.3182027       0.99964955    0.00020001796
       8.3860202       0.99964826    0.00020470987
       8.4543906       0.99964699    0.00020945431
       8.5233185       0.99964578    0.00021417093
       8.5928082       0.99964463    0.00021895072
       8.6628646       0.99964362    0.00022374874
       8.7334921       0.99964268    0.00022864160
       8.8046954       0.99964203    0.00023364412
       8.8764792       0.99964163    0.00023876159
       8.9488483       0.99964157    0.00024399259
       9.0218074       0.99964179    0.00024933215
       9.0953613       0.99964254    0.00025479479
       9.1695149       0.99964370    0.00026037110
       9.2442731       0.99964555    0.00026607360
       9.3196408       0.99964803    0.00027189605
       9.3956229       0.99965146    0.00027785016
       9.4722245       0.99965587    0.00028393093
       9.5494506       0.99966167    0.00029014897
       9.6273064       0.99966911    0.00029650002
       9.7057969       0.99967875    0.00030299301
       9.7849273       0.99969167    0.00030963415
       9.8647029       0.99970861    0.00031643230
       9.9451288       0.99973494    0.00032338579
       10.026211       0.99977190    0.00033050084
       10.107953       0.99994848    0.00033776906
       10.190362        1.0002357    5.1458818e-05
       10.273443       0.99984917    5.2869232e-05
       10.357202       0.99977201    5.4313868e-05
       10.441643       0.99971938    5.5799066e-05
       10.526773       0.99968750    5.7323516e-05
       10.612597       0.99966093    5.8891273e-05
       10.699120       0.99963834    6.0499854e-05
       10.786349       0.99961812    6.2154616e-05
       10.874289       0.99959943    6.3851858e-05
       10.962946       0.99958206    6.5598748e-05
       11.052326       0.99956538    6.7390107e-05
       11.142434       0.99954953    6.9233526e-05
       11.233278       0.99953401    7.1122558e-05
       11.324861       0.99951902    7.3068107e-05
       11.417192       0.99950416    7.5061619e-05
       11.510275       0.99948967    7.7115571e-05
       11.604117       0.99947519    7.9219352e-05
       11.698725       0.99946096    8.1387324e-05
       11.794103       0.99944666    8.3607088e-05
       11.890259       0.99943252    8.5889376e-05
       11.987199       0.99941826    8.8223125e-05
       12.084930       0.99940409    9.0623697e-05
       12.183457       0.99938975    9.3078014e-05
       12.282788       0.99937545    9.5637007e-05
       12.382928       0.99936096    9.8261654e-05
       12.483885       0.99934647    0.00010097457
       12.585665       0.99933178    0.00010374951
       12.688275       0.99931704    0.00010661891
       12.791721       0.99930207    0.00010955270
       12.896010       0.99928699    0.00011258447
       13.001150       0.99927165    0.00011568253
       13.107148       0.99925616    0.00011909355
       13.214009       0.99924040    0.00012260606
       13.321741       0.99922469    0.00012632303
       13.430352       0.99920872    0.00013012850
       13.539849       0.99919272    0.00013408209
       13.650238       0.99917646    0.00013812036
       13.761527       0.99916014    0.00014231746
       13.873723       0.99914353    0.00014660276
       13.986834       0.99912690    0.00015105853
       14.100868       0.99910999    0.00015560562
       14.215831       0.99909301    0.00016018906
       14.331731       0.99907574    0.00016486469
       14.448576       0.99905823    0.00016965248
       14.566374       0.99904041    0.00017454030
       14.685132       0.99902239    0.00017960798
       14.804859       0.99900408    0.00018478354
       14.925561       0.99898556    0.00019014733
       15.047248       0.99896673    0.00019562769
       15.169927       0.99894768    0.00020130502
       15.293606       0.99892833    0.00020710827
       15.418293       0.99890874    0.00021311763
       15.543997       0.99888884    0.00021926296
       15.670725       0.99886871    0.00022562349
       15.798487       0.99884825    0.00023213058
       15.927291       0.99882755    0.00023886282
       16.057145       0.99880652    0.00024575325
       16.188057       0.99878523    0.00025287945
       16.320037       0.99876362    0.00026017566
       16.453092       0.99874175    0.00026771801
       16.587233       0.99871955    0.00027544384
       16.722467       0.99869709    0.00028342746
       16.858803       0.99867432    0.00029160410
       16.996252       0.99865133    0.00030003754
       17.134820       0.99862801    0.00030860614
       17.274519       0.99860440    0.00031726433
       17.415356       0.99858039    0.00032613882
       17.557342       0.99855595    0.00033528695
       17.700486       0.99853114    0.00034466709
       17.844796       0.99850598    0.00035433353
       17.990283       0.99848044    0.00036424866
       18.136956       0.99845453    0.00037446198
       18.284825       0.99842823    0.00038494240
       18.433899       0.99840157    0.00039573380
       18.584189       0.99837452    0.00040681177
       18.735704       0.99834709    0.00041821439
       18.888454       0.99831927    0.00042992389
       19.042450       0.99829106    0.00044197137
       19.197701       0.99826246    0.00045434831
       19.354218       0.99823346    0.00046707798
       19.512011       0.99820407    0.00048016059
       19.671091       0.99817427    0.00049361097
       19.831467       0.99814408    0.00050743956
       19.993151       0.99811349    0.00052165087
       20.156154       0.99808250    0.00053626728
       20.320485       0.99805111    0.00055128292
       20.486156       0.99801934    0.00056673302
       20.653177       0.99798716    0.00058259931
       20.821561       0.99795462    0.00059893034
       20.991317       0.99792167    0.00061569490
       21.162457       0.99788850    0.00063295665
       21.334993       0.99785501    0.00065066921
       21.508935       0.99782131    0.00066863938
       21.684295       0.99778729    0.00068690796
       21.861085       0.99775267    0.00070532205
       22.039316       0.99771748    0.00072398081
       22.219001       0.99768169    0.00074317827
       22.400150       0.99764531    0.00076283451
       22.582776       0.99760842    0.00078306521
       22.766892       0.99757097    0.00080377318
       22.952508       0.99753305    0.00082509353
       23.139637       0.99749457    0.00084691000
       23.328293       0.99745563    0.00086937747
       23.518486       0.99741611    0.00089235960
       23.710230       0.99737616    0.00091603682
       23.903537       0.99733562    0.00094024940
       24.098420       0.99729466    0.00096520099
       24.294892       0.99725312    0.00099070832
       24.492966       0.99721117     0.0010170032
       24.692655       0.99716862     0.0010438753
       24.893972       0.99712570     0.0010715863
       25.096930       0.99708215     0.0010998966
       25.301543       0.99703828     0.0011290991
       25.507824       0.99699376     0.0011589236
       25.715787       0.99694896     0.0011896994
       25.925445       0.99690352     0.0012211203
       26.136813       0.99685785     0.0012535511
       26.349904       0.99681152     0.0012866502
       26.564732       0.99676507     0.0013208283
       26.781312       0.99671793     0.0013557004
       26.999657       0.99667080     0.0013917167
       27.219783       0.99662297     0.0014284525
       27.441703       0.99657538     0.0014664087
       27.665432       0.99652711     0.0015051175
       27.890986       0.99647958     0.0015451073
       28.118378       0.99643144     0.0015858417
       28.347625       0.99638488     0.0016264273
       28.578740       0.99633764     0.0016676373
       28.811740       0.99628962     0.0017071373
       29.046639       0.99624081     0.0017474153
       29.283454       0.99619013     0.0017888025
       29.522199       0.99613871     0.0018310142
       29.762891       0.99608657     0.0018743745
       30.005545       0.99603369     0.0019186077
       30.250177       0.99598021     0.0019640371
       30.496804       0.99592600     0.0020103929
       30.745441       0.99587128     0.0020579919
       30.996106       0.99581584     0.0021065720
       31.248814       0.99575996     0.0021564435
       31.503583       0.99570338     0.0022073528
       31.760428       0.99564644     0.0022596008
       32.019368       0.99558883     0.0023129498
       32.280419       0.99553093     0.0023676991
       32.543598       0.99547240     0.0024236103
       32.808923       0.99541367     0.0024809618
       33.076411       0.99535453     0.0025395488
       33.346079       0.99529569     0.0025996442
       33.617947       0.99523652     0.0026605542
       33.892031       0.99517767     0.0027218573
       34.168349       0.99511780     0.0027841534
       34.446920       0.99505664     0.0028472859
       34.727763       0.99499474     0.0029117727
       35.010895       0.99493216     0.0029777949
       35.296335       0.99486892     0.0030452422
       35.584103       0.99480514     0.0031142776
       35.874217       0.99474076     0.0031848210
       36.166696       0.99467592     0.0032570198
       36.461559       0.99461053     0.0033308103
       36.758827       0.99454473     0.0034063182
       37.058518       0.99447845     0.0034834960
       37.360653       0.99441178     0.0035624429
       37.665250       0.99434471     0.0036431603
       37.972331       0.99427733     0.0037257247
       38.281916       0.99420961     0.0038101523
       38.594025       0.99414161     0.0038964917
       38.908678       0.99407340     0.0039847990
       39.225897       0.99400494     0.0040750903
       39.545702       0.99393641     0.0041674558
       39.868114       0.99386769     0.0042618776
       40.193155       0.99379904     0.0043584728
       40.520846       0.99373027     0.0044571901
       40.851209       0.99366176     0.0045582319
       41.184265       0.99359321     0.0046615000
       41.520036       0.99352514     0.0047671852
       41.858545       0.99345710     0.0048751572
       42.199813       0.99338990     0.0049856945
       42.543864       0.99332288     0.0050986123
       42.890720       0.99325709     0.0052142240
       43.240404       0.99319162     0.0053322974
       43.592939       0.99312802     0.0054532110
       43.948348       0.99306499     0.0055766796
       44.306655       0.99300492     0.0057031619
       44.667883       0.99294579     0.0058322987
       45.032056       0.99289231     0.0059645856
       45.399198       0.99284073     0.0060996161
       45.769333       0.99279918     0.0062284590
       46.142486       0.99276094     0.0063568122
       46.518681       0.99271788     0.0064748913
       46.897943       0.99267335     0.0065914331
       47.280298       0.99262244     0.0067101429
       47.665769       0.99256972     0.0068309271
       48.054384       0.99251508     0.0069539449
       48.446167       0.99245976     0.0070791031
       48.841143       0.99240341     0.0072065986
       49.239341       0.99234657     0.0073363107
       49.640784       0.99228924     0.0074684558
       50.045501       0.99223152     0.0076028933
       50.453517       0.99217369     0.0077398306
       50.864859       0.99211550     0.0078791335
       51.279556       0.99205761     0.0080210320
       51.697633       0.99199941     0.0081653762
       52.119119       0.99194187     0.0083124472
       52.544041       0.99188404     0.0084620492
       52.972427       0.99182717     0.0086144775
       53.404306       0.99177003     0.0087695218
       53.839707       0.99171426     0.0089275058
       54.278657       0.99165827     0.0090881997
       54.721185       0.99160399     0.0092518756
       55.167322       0.99154960     0.0094183668
       55.617096       0.99149726     0.0095880264
       56.070536       0.99144495     0.0097606068
       56.527674       0.99139515     0.0099363809
       56.988539       0.99134558      0.010115197
       57.453161       0.99129901      0.010297400
       57.921571       0.99125291      0.010482756
       58.393800       0.99121037      0.010671550
       58.869879       0.99116867      0.010863626
       59.349839       0.99113151      0.011059298
       59.833713       0.99109566      0.011258372
       60.321531       0.99106546      0.011461121
       60.813327       0.99103744      0.011667411
       61.309132       0.99101746      0.011877539
       61.808979       0.99100173      0.012091346
       62.312902       0.99100008      0.012309122
       62.820933       0.99100586      0.012522014
       63.333106       0.99103352      0.012710351
       63.849455       0.99105574      0.012896097
       64.370013       0.99105873      0.013068808
       64.894816       0.99105987      0.013243908
       65.423897       0.99105425      0.013421244
       65.957292       0.99104800      0.013601038
       66.495035       0.99103897      0.013783166
       67.037163       0.99102986      0.013967812
       67.583710       0.99101958      0.014154874
       68.134713       0.99100953      0.014344505
       68.690209       0.99099908      0.014536619
       69.250234       0.99098917      0.014731358
       69.814824       0.99097953      0.014928651
       70.384018       0.99097073      0.015128641
       70.957852       0.99096276      0.015331276
       71.536364       0.99095589      0.015536650
       72.119593       0.99095020      0.015744726
       72.707578       0.99094603      0.015955628
       73.300355       0.99094353      0.016169352
       73.897966       0.99094300      0.016385945
       74.500449       0.99094459      0.016605422
       75.107844       0.99094867      0.016827855
       75.720191       0.99095531      0.017053284
       76.337530       0.99096532      0.017281712
       76.959903       0.99097861      0.017513205
       77.587350       0.99099648      0.017747737
       78.219912       0.99101853      0.017985403
       78.857631       0.99104729      0.018226260
       79.500550       0.99108171      0.018470420
       80.148710       0.99112860      0.018717814
       80.802155       0.99118496      0.018968591
       81.460927       0.99126340      0.019195594
       82.125070       0.99135702      0.019408635
       82.794628       0.99142967      0.019605305
       83.469644       0.99149162      0.019793591
       84.150164       0.99154457      0.019983629
       84.836232       0.99159411      0.020175565
       85.527894       0.99163929      0.020369219
       86.225195       0.99168370      0.020564785
       86.928180       0.99172545      0.020762276
       87.636897       0.99176739      0.020961807
       88.351392       0.99180776      0.021163080
       89.071713       0.99184892      0.021366350
       89.797906       0.99188937      0.021571410
       90.530020       0.99193101      0.021778536
       91.268102       0.99197271      0.021987581
       92.012202       0.99201593      0.022198775
       92.762369       0.99206021      0.022411909
       93.518651       0.99210639      0.022627237
       94.281100       0.99215474      0.022844506
       95.049764       0.99220534      0.023064007
       95.824696       0.99226185      0.023285399
       96.605945       0.99232140      0.023509068
       97.393564       0.99239247      0.023734715
       98.187605       0.99246751      0.023962706
       98.988119       0.99255057      0.024155909
       99.795159       0.99263719      0.024346872
       100.60878       0.99270222      0.024533330
       101.42903       0.99276799      0.024720670
       102.25597       0.99282439      0.024909662
       103.08966       0.99288259      0.025100002
       103.93014       0.99293450      0.025291833
       104.77747       0.99298844      0.025485018
       105.63171       0.99303767      0.025679709
       106.49292       0.99308887      0.025875791
       107.36114       0.99313630      0.026073530
       108.23645       0.99318555      0.026272674
       109.11889       0.99323204      0.026473504
       110.00852       0.99328022      0.026675769
       110.90541       0.99332614      0.026879642
       111.80961       0.99337368      0.027084955
       112.72119       0.99341964      0.027291786
       113.64019       0.99346716      0.027500116
       114.56669       0.99351348      0.027710214
       115.50074       0.99356136      0.027921850
       116.44241       0.99360860      0.028135298
       117.39175       0.99365743      0.028350265
       118.34883       0.99370620      0.028566836
       119.31372       0.99375664      0.028785018
       120.28647       0.99380768      0.029005061
       121.26716       0.99386065      0.029226690
       122.25584       0.99391520      0.029450001
       123.25258       0.99397291      0.029674938
       124.25744       0.99403599      0.029901668
       125.27050       0.99410290      0.030125657
       126.29182       0.99417632      0.030339212
       127.32147       0.99424721      0.030552124
       128.35951       0.99430806      0.030761670
       129.40601       0.99436869      0.030972504
       130.46104       0.99442613      0.031184917
       131.52468       0.99448391      0.031398663
       132.59699       0.99454028      0.031613998
       133.67804       0.99459715      0.031830697
       134.76790       0.99465326      0.032048984
       135.86665       0.99471006      0.032268665
       136.97436       0.99476673      0.032489930
       138.09110       0.99482427      0.032712639
       139.21694       0.99488217      0.032936954
       140.35196       0.99494122      0.033162745
       141.49624       0.99500115      0.033390133
       142.64984       0.99506261      0.033619049
       143.81285       0.99512552      0.033849559
       144.98535       0.99519124      0.034081634
       146.16740       0.99525989      0.034315299
       147.35909       0.99533310      0.034549641
       148.56049       0.99541094      0.034784654
       149.77169       0.99548943      0.035012284
       150.99277       0.99556878      0.035233266
       152.22379       0.99564574      0.035455696
       153.46486       0.99572118      0.035679446
       154.71604       0.99579681      0.035904713
       155.97743       0.99587323      0.036131308
       157.24910       0.99595090      0.036359444
       158.53114       0.99603025      0.036588879
       159.82362       0.99611193      0.036819911
       161.12665       0.99619607      0.037052219
       162.44030       0.99628369      0.037286210
       163.76466       0.99637445      0.037521474
       165.09982       0.99647039      0.037758458
       166.44586       0.99657036      0.037996695
       167.80288       0.99667785      0.038236671
       169.17096       0.99679043      0.038477869
       170.55019       0.99691429      0.038720906
       171.94067       0.99704472      0.038965153
       173.34249       0.99719241      0.039211279
       174.75573       0.99734877      0.039458593
       176.18050       0.99755165      0.039707842
       177.61688       0.99777247      0.039958274
       179.06498       0.99808251      0.040170643
       180.52487       0.99842203      0.040372836
       181.99668       0.99869850      0.040365392
       183.48048       0.99896610      0.040306053
       184.97638       0.99913591      0.040271620
       186.48447       0.99929053      0.040236894
       188.00486       0.99940133      0.040206598
       189.53765       0.99950764      0.040171803
       191.08293       0.99957927      0.040141682
       192.64081       0.99964818      0.040106766
       194.21139       0.99968739      0.040076840
       195.79478       0.99972471      0.040041856
       197.39107       0.99973494      0.040012162
       199.00038       0.99974365      0.039977117
       200.62281       0.99972611      0.039947528
       202.25847       0.99970719      0.039912303
       203.90747       0.99966111      0.039887001
       205.56990       0.99961342      0.039856132
       207.24590       0.99954826      0.039834688
       208.93555       0.99948091      0.039807810
       210.63898       0.99939429      0.039786183
       212.35630       0.99930447      0.039759397
       214.08762       0.99919457      0.039737627
       215.83306       0.99908026      0.039711005
       217.59272       0.99894360      0.039689244
       219.36674       0.99880039      0.039662911
       221.15521       0.99862611      0.039641125
       222.95827       0.99844626      0.039622079
       224.77603       0.99825261      0.039654073
       226.60860       0.99805694      0.039682947
       228.45612       0.99787052      0.039714831
       230.31870       0.99768048      0.039743818
       232.19647       0.99748927      0.039775703
       234.08954       0.99729421      0.039804883
       235.99805       0.99709675      0.039836624
       237.92212       0.99689588      0.039864169
       239.86188       0.99669413      0.039888220
       241.81745       0.99648667      0.039908813
       243.78896       0.99627100      0.039928387
       245.77655       0.99605186      0.039945776
       247.78034       0.99583139      0.039965276
       249.80047       0.99562067      0.039982798
       251.83707       0.99543981      0.040002204
       253.89028       0.99529399      0.039973939
       255.96022       0.99522723      0.039849410
       258.04704       0.99508316      0.039659650
       260.15087       0.99479172      0.039352250
       262.27186       0.99443277      0.039043182
       264.41013       0.99396159      0.038740331
       266.56584       0.99341411      0.038454903
       268.73913       0.99275304      0.038203664
       270.93013       0.99207448      0.038033162
       273.13900       0.99137723      0.037981733
       275.36588       0.99067988      0.037929552
       277.61091       0.98998671      0.037878052
       279.87424       0.98926926      0.037826138
       282.15603       0.98852581      0.037774711
       284.45642       0.98772110      0.037723103
       286.77557       0.98685178      0.037671583
       289.11362       0.98586042      0.037709282
       291.47073       0.98474949      0.037833400
       293.84707       0.98372056      0.038077134
       296.24277       0.98276078      0.038426432
       298.65801       0.98183459      0.038778888
       301.09294       0.98093087      0.039134603
       303.54772       0.98000508      0.039493527
       306.02252       0.97905749      0.039855802
       308.51749       0.97808931      0.040313927
       311.03281       0.97710016      0.040837028
       313.56863       0.97615720      0.041386186
       316.12512       0.97523321      0.041954125
       318.70246       0.97431386      0.042529637
       321.30081       0.97338781      0.043113230
       323.92034       0.97239131      0.043704649
       326.56123       0.97135008      0.044304441
       329.22366       0.97019092      0.045163344
       331.90778       0.96896711      0.046141709
       334.61380       0.96798495      0.047283513
       337.34187       0.96708180      0.048500942
       340.09219       0.96633107      0.049753661
       342.86492       0.96562184      0.051034472
       345.66027       0.96501789      0.052352831
       348.47840       0.96443739      0.053700355
       351.31951       0.96399678      0.055171218
       354.18379       0.96358688      0.056694915
       357.07142       0.96340451      0.058279443
       359.98258       0.96327130      0.059901699
       362.91749       0.96339623      0.061578527
       365.87632       0.96357411      0.063292440
       368.85927       0.96414335      0.065152735
       371.86655       0.96478596      0.067066289
       374.89834       0.96617128      0.069065034
       377.95485       0.96767598      0.071109083
       381.03628       0.97074764      0.072190794
       384.14283       0.97402536      0.073206356
       387.27471       0.97666281      0.072667547
       390.43212       0.97932847      0.072019058
       393.61528       0.98253527      0.070679868
       396.82438       0.98583695      0.069279268
       400.05966       0.98941504      0.066435027
       403.32130       0.99302304      0.063436127
       406.60954       0.99381023      0.056967290
       409.92459       0.99449507      0.050403615
       413.26667       0.99252802      0.045247767
       1239.80      0.930000      0.860000
       1377.56      0.920000       1.14000
       1458.59      0.920000       1.20000
       1549.75      0.920000       1.40000
       1771.14       1.00000       1.80000
       1907.38       1.10000       2.05000
       2066.33       1.30000       2.34000
       2066.33       1.02200       2.77400
       2087.21       1.07300       2.80100
       2101.36       1.10800       2.83100
       2122.95       1.16700       2.86200
       2137.59       1.20900       2.87300
       2156.17       1.48000       2.40000
       2159.93       1.27300       2.87400
       2175.09       1.29300       2.16300
       2198.23       1.34500       2.85200
       2213.93       1.36000       2.84600
       2237.91       1.37200       2.84200
       2254.18       1.38000       2.84200
       2254.18       1.55000       2.40000
       2279.04       1.38700       2.84900
       2295.93       1.38300       2.85400
       2321.72       1.37700       2.87700
       2339.25       1.37100       2.89700
       2361.52       1.57000       2.70000
       2366.03       1.36600       2.93800
       2384.23       1.36400       2.97300
       2412.06       1.36600       3.03100
       2430.98       1.37000       3.07300
       2459.92       1.38200       3.14600
       2479.60       1.39400       3.19700
       2479.60       1.60000       2.86000
       2509.72       1.41700       3.28200
       2530.20       1.43500       3.34200
       2561.57       1.47000       3.43900
       2582.92       1.49800       3.50900
       2615.61       1.54600       3.62400
       2637.87       1.58600       3.70900
       2671.98       1.65900       3.85200
       2695.22       1.72000       3.96000
       2730.84       1.83900       4.14700
       2755.11       1.95300       4.29700
       2792.34       2.22600       4.54300
       2817.73       2.51600       4.66900
       2856.68       3.03800       4.65300
       2883.26       3.33800       4.50700
       2924.06       3.63300       4.20700
       2951.90       3.74500       4.00900
       2994.69       3.83700       3.75600
       3023.90       3.86900       3.61400
       3068.81       3.89600       3.43600
       3099.50       3.90500       3.33600
       3146.70       3.91600       3.20900
       3178.97       3.92000       3.13700
       3228.65       3.93000       3.04300
       3262.63       3.93600       2.98600
       3314.97       3.94900       2.90900
       3350.81       3.95800       2.86300
       3406.04       3.97400       2.79900
       3443.89       3.98500       2.75900
       3502.26       4.00500       2.70200
       3542.29       4.02000       2.66700
       3604.07       4.04800       2.61500
       3646.47       4.07000       2.57900
       3711.98       4.10600       2.51700
       3756.97       4.12800       2.46900
       3826.54       4.15000       2.39200
       3874.38       4.15700       2.34000
       3948.41       4.15300       2.26200
       3999.35       4.14100       2.21500
       4078.29       4.10700       2.16400
       4132.67       4.08200       2.14500
       4217.01       4.05200       2.13500
       4275.17       4.03700       2.14000
       4365.49       4.03000       2.16200
       4427.86       4.03500       2.18100
       4524.82       4.05800       2.21500
       4591.85       4.08200       2.24000
       4696.21       4.13300       2.28100
       4768.46       4.18000       2.30900
       4881.10       4.26700       2.35300
       4959.20       4.34000       2.38400
       5081.15       4.48200       2.42900
       5165.83       4.61000       2.45500
       5298.29       4.88300       2.43400
       5390.44       5.06200       2.31800
       5534.82       5.19800       2.12500
       5635.45       5.28300       2.04900
       5793.46       5.55400       1.92400
       5903.81       5.74800       1.63400
       6047.81       5.90000       0.00000
       6077.45       5.70800       1.15000
       6199.00       5.58800      0.933000
       6199.00       5.64000       0.00000
       6357.95       5.50000       0.00000
       6525.26       5.38000       0.00000
       6525.26       5.29400      0.638000
       6701.62       5.21000       0.00000
       6738.04       5.15200      0.537000
       6887.78       5.06700      0.500000
       6887.78       5.08000       0.00000
       7084.57       4.99000       0.00000
       7125.29       4.96100      0.430000
       7292.94       4.89700      0.401000
       7292.94       4.95000       0.00000
       7559.76       4.81600      0.364000
       7748.75       4.76300      0.345000
       7748.75       4.75000      0.308000
       8050.65       4.68400      0.316000
       8265.33       4.65300      0.298000
       8265.33       4.64000      0.237000
       8855.71       4.56000      0.190000
       9536.92       4.49500      0.167000
       9998.39       4.61733       0.00000
       10331.7       4.42000      0.123000
       11270.9       4.38500      0.103000
       12001.9       4.35673       0.00000
       12398.0       4.32500     0.0809000
       13775.6       4.28500     0.0745000
       13999.5       4.23840       0.00000
       15497.5       4.27500    0.00567000
       15997.4       4.17262       0.00000
       17711.4       4.18000   0.000282000
       17999.4       4.13164       0.00000
       17999.4       4.14300       0.00000
       18499.0       4.13500       0.00000
       19000.8       4.12900       0.00000
       20000.0       4.11600       0.00000
       20000.0       4.10415       0.00000
       20999.3       4.10400       0.00000
       21997.9       4.09200       0.00000
       21997.9       4.08469       0.00000
       22997.6       4.08500       0.00000
       23999.2       4.07800       0.00000
       23999.2       4.07038       0.00000
       25001.0       4.07200       0.00000
       25541.8       4.06230       0.00000
       25997.1       4.06800       0.00000
       25997.1       4.05951       0.00000
       26519.8       4.05754       0.00000
       27320.4       4.05310       0.00000
       27999.1       4.05105       0.00000
       28560.2       4.04947       0.00000
       29582.4       4.04595       0.00000
       29997.6       4.04433       0.00000
       30902.3       4.04292       0.00000
       32003.1       4.03889       0.00000
       33995.1       4.03443       0.00000
       35998.8       4.03072       0.00000
       37995.7       4.02760       0.00000
       39993.5       4.02495       0.00000
       41203.1       4.02457       0.00000
       41998.6       4.02268       0.00000
       43995.7       4.02072       0.00000
       46003.7       4.01901       0.00000
       47998.4       4.01751       0.00000
       49991.9       4.01619       0.00000
       51896.2       4.01617       0.00000
       52005.0       4.01503       0.00000
       53998.3       4.01399       0.00000
       55998.2       4.01305       0.00000
       57988.8       4.01222       0.00000
       60009.7       4.01146       0.00000
       61990.0       4.01078       0.00000
       64006.2       4.01015       0.00000
       65981.9       4.00958       0.00000
       68008.8       4.00906       0.00000
       70005.6       4.00858       0.00000
       71997.7       4.00814       0.00000
       74017.9       4.00773       0.00000
       76014.7       4.00736       0.00000
       77974.8       4.00701       0.00000
       79987.1       4.00668       0.00000
       79987.1       4.00748       0.00000
       81997.4       4.00637       0.00000
       82324.0       4.00743       0.00000
       83997.3       4.00609       0.00000
       85977.8       4.00582       0.00000
       87991.5       4.00556       0.00000
       89971.0       4.00533       0.00000
       89971.0       4.00620       0.00000
       91973.3       4.00510       0.00000
       93995.5       4.00489       0.00000
       95959.8       4.00469       0.00000
       98007.9       4.00449       0.00000
       99983.9       4.00431       0.00000
       99983.9       4.00525       0.00000
       102717.       4.00571       0.00000
       104979.       4.00389       0.00000
       110009.       4.00351       0.00000
       110009.       4.00436       0.00000
       115009.       4.00316       0.00000
       120019.       4.00285       0.00000
       120019.       4.00398       0.00000
       123609.       4.00627       0.00000
       124992.       4.00255       0.00000
       129999.       4.00228       0.00000
       129999.       4.00352       0.00000
       134996.       4.00202       0.00000
       139995.       4.00177       0.00000
       139995.       4.00315       0.00000
       144989.       4.00153       0.00000
       149988.       4.00130       0.00000
       154994.       4.00107       0.00000
       159995.       4.00086       0.00000
       169999.       4.00043       0.00000
       179994.       4.00001       0.00000
       189979.       3.99958       0.00000
       200000.       3.99915   0.000239000
       219979.       3.99825       0.00000
       239992.       3.99728       0.00000
       259971.       3.99621       0.00000
       279991.       3.99500       0.00000
       299976.       3.99363       0.00000
       350028.       3.98925       0.00000
       399936.       3.98272       0.00000
       714170.       4.00600    0.00102000
       754595.       4.00600    0.00114000
       799871.       4.00600    0.00127000
       850927.       4.00600    0.00162000
       908944.       4.00630    0.00210000
       975452.       4.00640    0.00241000
   1.05246e+06       4.00670    0.00201000
   1.14267e+06       4.00680    0.00173000
   1.24992e+06       4.00670    0.00159000
   1.37924e+06       4.00670    0.00143000
   1.53840e+06       4.00650    0.00134000
   1.73909e+06       4.00610    0.00110000
   2.00000e+06       4.00590    0.00111000
   2.35301e+06       4.00560    0.00150000
   2.85734e+06       4.00520    0.00204000
   3.63578e+06       4.00470    0.00289000
   4.99919e+06       4.00430    0.00477000
