;  Optical constants for H2O
;  
;  Concatenation of:
;
;  H2O_llnl_cxro + H2O_palik
;
;    Lambda (A)            n            k
;-----------------------------------------
      0.12398000       0.99999998    2.7249259e-13
      0.12499080       0.99999998    2.8214055e-13
      0.12600983       0.99999998    2.9198842e-13
      0.12703718       0.99999998    3.0227414e-13
      0.12807290       0.99999998    3.1299862e-13
      0.12911707       0.99999998    3.2394694e-13
      0.13016975       0.99999997    3.3512140e-13
      0.13123101       0.99999997    3.4688241e-13
      0.13230092       0.99999997    3.5905503e-13
      0.13337956       0.99999997    3.7151698e-13
      0.13446699       0.99999997    3.8480493e-13
      0.13556329       0.99999997    3.9836953e-13
      0.13666852       0.99999997    4.1221713e-13
      0.13778277       0.99999997    4.2636667e-13
      0.13890610       0.99999997    4.4151041e-13
      0.14003858       0.99999997    4.5696893e-13
      0.14118030       0.99999997    4.7295518e-13
      0.14233133       0.99999997    4.8987763e-13
      0.14349175       0.99999997    5.0715284e-13
      0.14466162       0.99999997    5.2478661e-13
      0.14584103       0.99999997    5.4278481e-13
      0.14703006       0.99999997    5.6208480e-13
      0.14822878       0.99999997    5.8179831e-13
      0.14943728       0.99999997    6.0197702e-13
      0.15065563       0.99999997    6.2362599e-13
      0.15188391       0.99999997    6.4572110e-13
      0.15312220       0.99999996    6.6827614e-13
      0.15437059       0.99999996    6.9129867e-13
      0.15562916       0.99999996    7.1555620e-13
      0.15689799       0.99999996    7.4102914e-13
      0.15817716       0.99999996    7.6732881e-13
      0.15946677       0.99999996    7.9475140e-13
      0.16076688       0.99999996    8.2274274e-13
      0.16207760       0.99999996    8.5216603e-13
      0.16339900       0.99999996    8.8236734e-13
      0.16473118       0.99999996    9.1381475e-13
      0.16607422       0.99999996    9.4672470e-13
      0.16742821       0.99999996    9.8112605e-13
      0.16879323       0.99999996    1.0162449e-12
      0.17016939       0.99999996    1.0520871e-12
      0.17155676       0.99999996    1.0886821e-12
      0.17295545       0.99999996    1.1272920e-12
      0.17436554       0.99999995    1.1677849e-12
      0.17578712       0.99999995    1.2091223e-12
      0.17722030       0.99999995    1.2514761e-12
      0.17866516       0.99999995    1.2967820e-12
      0.18012180       0.99999995    1.3430292e-12
      0.18159031       0.99999995    1.3902385e-12
      0.18307080       0.99999995    1.4394403e-12
      0.18456336       0.99999995    1.4906758e-12
      0.18606809       0.99999995    1.5437665e-12
      0.18758508       0.99999995    1.5993399e-12
      0.18911444       0.99999995    1.6560765e-12
      0.19065628       0.99999995    1.7139828e-12
      0.19221068       0.99999994    1.7761024e-12
      0.19377775       0.99999994    1.8396974e-12
      0.19535760       0.99999994    1.9046031e-12
      0.19695034       0.99999994    1.9711866e-12
      0.19855605       0.99999994    2.0422041e-12
      0.20017486       0.99999994    2.1146930e-12
      0.20180687       0.99999994    2.1891204e-12
      0.20345218       0.99999994    2.2679938e-12
      0.20511091       0.99999994    2.3485084e-12
      0.20678315       0.99999994    2.4308955e-12
      0.20846904       0.99999993    2.5174117e-12
      0.21016867       0.99999993    2.6074294e-12
      0.21188215       0.99999993    2.6993271e-12
      0.21360961       0.99999993    2.7952501e-12
      0.21535114       0.99999993    2.8945716e-12
      0.21710688       0.99999993    2.9978090e-12
      0.21887693       0.99999993    3.1042332e-12
      0.22066141       0.99999993    3.2145785e-12
      0.22246045       0.99999993    3.3291563e-12
      0.22427414       0.99999992    3.4474605e-12
      0.22610263       0.99999992    3.5697095e-12
      0.22794602       0.99999992    3.6970058e-12
      0.22980444       0.99999992    3.8274505e-12
      0.23167802       0.99999992    3.9645065e-12
      0.23356687       0.99999992    4.1044110e-12
      0.23547111       0.99999992    4.2511614e-12
      0.23739089       0.99999992    4.4018996e-12
      0.23932631       0.99999991    4.5582370e-12
      0.24127752       0.99999991    4.7207235e-12
      0.24324463       0.99999991    4.8870317e-12
      0.24522778       0.99999991    5.0623049e-12
      0.24722710       0.99999991    5.2412331e-12
      0.24924272       0.99999991    5.4267911e-12
      0.25127477       0.99999991    5.6192759e-12
      0.25332339       0.99999990    5.8186801e-12
      0.25538871       0.99999990    6.0270081e-12
      0.25747087       0.99999990    6.2396589e-12
      0.25957000       0.99999990    6.4616747e-12
      0.26168625       0.99999990    6.6915472e-12
      0.26381975       0.99999990    6.9262799e-12
      0.26597065       0.99999989    7.1725334e-12
      0.26813908       0.99999989    7.4272689e-12
      0.27032520       0.99999989    7.6910343e-12
      0.27252913       0.99999989    7.9642126e-12
      0.27475103       0.99999989    8.2469324e-12
      0.27699105       0.99999989    8.5398223e-12
      0.27924933       0.99999988    8.8413151e-12
      0.28152603       0.99999988    9.1554942e-12
      0.28382128       0.99999988    9.4794924e-12
      0.28613525       0.99999988    9.8169122e-12
      0.28846808       0.99999988    1.0161982e-11
      0.29081993       0.99999987    1.0524464e-11
      0.29319096       0.99999987    1.0894959e-11
      0.29558132       0.99999987    1.1284627e-11
      0.29799117       0.99999987    1.1682418e-11
      0.30042066       0.99999986    1.2097481e-11
      0.30286996       0.99999986    1.2525331e-11
      0.30533923       0.99999986    1.2970604e-11
      0.30782863       0.99999986    1.3431068e-11
      0.31033833       0.99999986    1.3903040e-11
      0.31286848       0.99999985    1.4395753e-11
      0.31541927       0.99999985    1.4905530e-11
      0.31799085       0.99999985    1.5430884e-11
      0.32058340       0.99999985    1.5978779e-11
      0.32319709       0.99999984    1.6543850e-11
      0.32583208       0.99999984    1.7127947e-11
      0.32848856       0.99999984    1.7735780e-11
      0.33116670       0.99999984    1.8361595e-11
      0.33386667       0.99999983    1.9012305e-11
      0.33658865       0.99999983    1.9685350e-11
      0.33933282       0.99999983    2.0379582e-11
      0.34209937       0.99999982    2.1102839e-11
      0.34488847       0.99999982    2.1849417e-11
      0.34770032       0.99999982    2.2627717e-11
      0.35053508       0.99999982    2.3422141e-11
      0.35339296       0.99999981    2.4256454e-11
      0.35627414       0.99999981    2.5115570e-11
      0.35917881       0.99999981    2.5992517e-11
      0.36210716       0.99999980    2.6912794e-11
      0.36505938       0.99999980    2.7862445e-11
      0.36803568       0.99999980    2.8847837e-11
      0.37103624       0.99999979    2.9864365e-11
      0.37406126       0.99999979    3.0922633e-11
      0.37711095       0.99999979    3.2013983e-11
      0.38018549       0.99999978    3.3139693e-11
      0.38328511       0.99999978    3.4309443e-11
      0.38641000       0.99999978    3.5523116e-11
      0.38956036       0.99999977    3.6774034e-11
      0.39273641       0.99999977    3.8070730e-11
      0.39593835       0.99999976    3.9413257e-11
      0.39916640       0.99999976    4.0805814e-11
      0.40242076       0.99999976    4.2239625e-11
      0.40570166       0.99999975    4.3735484e-11
      0.40900931       0.99999975    4.5052846e-11
      0.41234392       0.99999975    4.6010725e-11
      0.41570572       0.99999974    4.7456460e-11
      0.41909493       0.99999974    4.9112367e-11
      0.42251177       0.99999973    5.0837945e-11
      0.42595647       0.99999973    5.2611307e-11
      0.42942925       0.99999972    5.4460541e-11
      0.43293034       0.99999972    5.6359711e-11
      0.43645998       0.99999971    5.8341257e-11
      0.44001840       0.99999971    6.0375001e-11
      0.44360583       0.99999970    6.2498761e-11
      0.44722250       0.99999970    6.4677123e-11
      0.45086866       0.99999970    6.6953156e-11
      0.45454455       0.99999969    6.9286209e-11
      0.45825041       0.99999969    7.1725246e-11
      0.46198648       0.99999968    7.4223761e-11
      0.46575301       0.99999967    7.6837807e-11
      0.46955025       0.99999967    7.9513755e-11
      0.47337845       0.99999966    8.2315814e-11
      0.47723786       0.99999966    8.5182515e-11
      0.48112873       0.99999965    8.8185244e-11
      0.48505133       0.99999965    9.1255140e-11
      0.48900590       0.99999964    9.4473462e-11
      0.49299272       0.99999964    9.7761585e-11
      0.49701204       0.99999963    1.0121086e-10
      0.50106413       0.99999962    1.0473403e-10
      0.50514926       0.99999962    1.0842989e-10
      0.50926770       0.99999961    1.1220630e-10
      0.51341971       0.99999960    1.1616512e-10
      0.51760557       0.99999960    1.2021307e-10
      0.52182555       0.99999959    1.2445402e-10
      0.52607995       0.99999958    1.2879337e-10
      0.53036903       0.99999958    1.3333576e-10
      0.53469307       0.99999957    1.3798674e-10
      0.53905238       0.99999956    1.4285294e-10
      0.54344722       0.99999956    1.4783883e-10
      0.54787789       0.99999955    1.5305193e-10
      0.55234469       0.99999954    1.5839678e-10
      0.55684790       0.99999953    1.6398145e-10
      0.56138783       0.99999953    1.6971117e-10
      0.56596477       0.99999952    1.7569428e-10
      0.57057902       0.99999951    1.8183686e-10
      0.57523090       0.99999950    1.8824570e-10
      0.57992070       0.99999950    1.9482995e-10
      0.58464874       0.99999949    2.0169704e-10
      0.58941532       0.99999948    2.0875688e-10
      0.59422077       0.99999947    2.1611394e-10
      0.59906539       0.99999946    2.2368304e-10
      0.60394951       0.99999945    2.3156645e-10
      0.60887346       0.99999944    2.3968197e-10
      0.61383754       0.99999943    2.4812770e-10
      0.61884210       0.99999943    2.5681987e-10
      0.62388746       0.99999942    2.6584245e-10
      0.62897395       0.99999941    2.7515327e-10
      0.63410192       0.99999940    2.8484791e-10
      0.63927169       0.99999939    2.9484971e-10
      0.64448361       0.99999938    3.0523909e-10
      0.64973802       0.99999937    3.1596423e-10
      0.65503527       0.99999936    3.2709587e-10
      0.66037571       0.99999935    3.3859455e-10
      0.66575969       0.99999933    3.5052223e-10
      0.67118757       0.99999932    3.6285026e-10
      0.67665969       0.99999931    3.7562690e-10
      0.68217644       0.99999930    3.8884167e-10
      0.68773815       0.99999929    4.0252993e-10
      0.69334522       0.99999928    4.1669706e-10
      0.69899799       0.99999927    4.3136150e-10
      0.70469686       0.99999925    4.4654654e-10
      0.71044218       0.99999924    4.6225133e-10
      0.71623435       0.99999923    4.7852726e-10
      0.72207374       0.99999922    4.9535183e-10
      0.72796073       0.99999920    5.1279793e-10
      0.73389573       0.99999919    5.3081766e-10
      0.73987911       0.99999918    5.4951410e-10
      0.74591127       0.99999916    5.6881279e-10
      0.75199261       0.99999915    5.8884957e-10
      0.75812354       0.99999914    6.0951814e-10
      0.76430445       0.99999912    6.3098698e-10
      0.77053575       0.99999911    6.5311710e-10
      0.77681785       0.99999909    6.7612201e-10
      0.78315117       0.99999908    6.9982185e-10
      0.78953613       0.99999906    7.2447372e-10
      0.79597314       0.99999905    7.4985138e-10
      0.80246263       0.99999903    7.7626437e-10
      0.80900503       0.99999902    8.0343628e-10
      0.81560077       0.99999900    8.3173181e-10
      0.82225028       0.99999898    8.6082125e-10
      0.82895401       0.99999897    8.9113478e-10
      0.83571239       0.99999895    9.2227878e-10
      0.84252588       0.99999893    9.5474523e-10
      0.84939491       0.99999892    9.8807605e-10
      0.85631994       0.99999890    1.0228593e-09
      0.86330144       0.99999888    1.0585511e-09
      0.87033985       0.99999886    1.0958030e-09
      0.87743565       0.99999884    1.1339992e-09
      0.88458929       0.99999882    1.1739014e-09
      0.89180126       0.99999881    1.2147911e-09
      0.89907203       0.99999879    1.2575171e-09
      0.90640208       0.99999877    1.3012691e-09
      0.91379189       0.99999875    1.3470311e-09
      0.92124195       0.99999873    1.3938664e-09
      0.92875274       0.99999870    1.4428621e-09
      0.93632477       0.99999868    1.4929717e-09
      0.94395854       0.99999866    1.5454537e-09
      0.95165454       0.99999864    1.5990980e-09
      0.95941329       0.99999862    1.6552602e-09
      0.96723529       0.99999859    1.7126272e-09
      0.97512107       0.99999857    1.7727777e-09
      0.98307114       0.99999855    1.8342133e-09
      0.99108602       0.99999852    1.8985638e-09
      0.99916625       0.99999850    1.9643284e-09
       1.0073124       0.99999848    2.0331993e-09
       1.0155249       0.99999845    2.1036263e-09
       1.0238044       0.99999842    2.1772692e-09
       1.0321513       0.99999840    2.2526271e-09
       1.0405664       0.99999837    2.3314278e-09
       1.0490500       0.99999835    2.4121121e-09
       1.0576028       0.99999832    2.4963960e-09
       1.0662253       0.99999829    2.5827481e-09
       1.0749182       0.99999826    2.6729047e-09
       1.0836819       0.99999823    2.7653335e-09
       1.0925170       0.99999821    2.8617609e-09
       1.1014242       0.99999818    2.9606881e-09
       1.1104040       0.99999815    3.0638280e-09
       1.1194570       0.99999812    3.1697012e-09
       1.1285839       0.99999808    3.2799905e-09
       1.1377851       0.99999805    3.3932697e-09
       1.1470613       0.99999802    3.5111991e-09
       1.1564132       0.99999799    3.6324090e-09
       1.1658413       0.99999796    3.7585339e-09
       1.1753463       0.99999792    3.8882386e-09
       1.1849288       0.99999789    4.0230852e-09
       1.1945894       0.99999785    4.1618531e-09
       1.2043288       0.99999782    4.3060532e-09
       1.2141476       0.99999778    4.4545244e-09
       1.2240464       0.99999775    4.6086746e-09
       1.2340259       0.99999771    4.7675106e-09
       1.2440868       0.99999767    4.9323501e-09
       1.2542298       0.99999763    5.1022624e-09
       1.2644554       0.99999759    5.2784315e-09
       1.2747644       0.99999755    5.4601688e-09
       1.2851574       0.99999751    5.6485302e-09
       1.2956351       0.99999747    5.8429416e-09
       1.3061983       0.99999743    6.0442762e-09
       1.3168476       0.99999739    6.2522186e-09
       1.3275838       0.99999735    6.4674477e-09
       1.3384074       0.99999730    6.6898511e-09
       1.3493193       0.99999726    6.9198804e-09
       1.3603202       0.99999721    7.1577201e-09
       1.3714108       0.99999717    7.4035663e-09
       1.3825918       0.99999712    7.6579256e-09
       1.3938639       0.99999707    7.9206853e-09
       1.4052279       0.99999703    8.1926933e-09
       1.4166846       0.99999698    8.4734990e-09
       1.4282347       0.99999693    8.7643531e-09
       1.4398790       0.99999688    9.0644385e-09
       1.4516182       0.99999683    9.3754446e-09
       1.4634531       0.99999677    9.6960972e-09
       1.4753845       0.99999672    1.0028641e-08
       1.4874131       0.99999667    1.0371309e-08
       1.4995399       0.99999661    1.0726852e-08
       1.5117655       0.99999656    1.1092958e-08
       1.5240907       0.99999650    1.1473051e-08
       1.5365165       0.99999644    1.1864184e-08
       1.5490436       0.99999638    1.2270273e-08
       1.5616728       0.99999632    1.2687844e-08
       1.5744049       0.99999626    1.3122112e-08
       1.5872409       0.99999620    1.3568569e-08
       1.6001815       0.99999614    1.4032938e-08
       1.6132277       0.99999608    1.4509975e-08
       1.6263801       0.99999601    1.5006193e-08
       1.6396399       0.99999595    1.5515558e-08
       1.6530077       0.99999588    1.6046089e-08
       1.6664845       0.99999581    1.6590447e-08
       1.6800712       0.99999574    1.7157126e-08
       1.6937687       0.99999567    1.7738066e-08
       1.7075778       0.99999560    1.8343828e-08
       1.7214995       0.99999553    1.8964601e-08
       1.7355347       0.99999546    1.9612060e-08
       1.7496844       0.99999538    2.0275138e-08
       1.7639494       0.99999531    2.0966864e-08
       1.7783307       0.99999523    2.1674852e-08
       1.7928292       0.99999515    2.2414041e-08
       1.8074460       0.99999507    2.3170147e-08
       1.8221819       0.99999499    2.3959811e-08
       1.8370380       0.99999491    2.4767083e-08
       1.8520152       0.99999482    2.5610926e-08
       1.8671145       0.99999474    2.6473081e-08
       1.8823369       0.99999465    2.7374991e-08
       1.8976834       0.99999456    2.8296013e-08
       1.9131550       0.99999447    2.9259229e-08
       1.9287528       0.99999438    3.0242993e-08
       1.9444777       0.99999429    3.1271201e-08
       1.9603309       0.99999419    3.2321964e-08
       1.9763133       0.99999410    3.3419514e-08
       1.9924260       0.99999400    3.4541877e-08
       2.0086700       0.99999390    3.5714177e-08
       2.0250465       0.99999380    3.6913553e-08
       2.0415565       0.99999370    3.8164275e-08
       2.0582011       0.99999360    3.9444851e-08
       2.0749815       0.99999349    4.0780724e-08
       2.0918986       0.99999338    4.2149111e-08
       2.1089536       0.99999328    4.3574806e-08
       2.1261477       0.99999316    4.5036092e-08
       2.1434820       0.99999305    4.6557699e-08
       2.1609576       0.99999294    4.8118234e-08
       2.1785757       0.99999282    4.9742168e-08
       2.1963374       0.99999270    5.1408573e-08
       2.2142439       0.99999258    5.3141619e-08
       2.2322964       0.99999246    5.4921123e-08
       2.2504961       0.99999234    5.6771066e-08
       2.2688442       0.99999221    5.8671651e-08
       2.2873419       0.99999208    6.0646018e-08
       2.3059904       0.99999195    6.2675460e-08
       2.3247909       0.99999182    6.4782128e-08
       2.3437447       0.99999168    6.6948935e-08
       2.3628530       0.99999154    6.9197078e-08
       2.3821171       0.99999141    7.1510529e-08
       2.4015383       0.99999126    7.3908834e-08
       2.4211178       0.99999112    7.6378558e-08
       2.4408569       0.99999097    7.8938064e-08
       2.4607570       0.99999082    8.1575034e-08
       2.4808193       0.99999067    8.4306086e-08
       2.5010452       0.99999052    8.7121125e-08
       2.5214360       0.99999036    9.0034182e-08
       2.5419930       0.99999020    9.3039029e-08
       2.5627176       0.99999004    9.6147073e-08
       2.5836112       0.99998988    9.9354635e-08
       2.6046751       0.99998971    1.0267030e-07
       2.6259108       0.99998954    1.0609400e-07
       2.6473196       0.99998937    1.0963069e-07
       2.6689029       0.99998919    1.1328484e-07
       2.6906622       0.99998901    1.1705764e-07
       2.7125989       0.99998883    1.2095716e-07
       2.7347145       0.99998865    1.2498048e-07
       2.7570104       0.99998846    1.2914246e-07
       2.7794880       0.99998827    1.3343468e-07
       2.8021489       0.99998807    1.3787647e-07
       2.8249946       0.99998788    1.4245424e-07
       2.8480265       0.99998768    1.4719365e-07
       2.8712461       0.99998747    1.5207501e-07
       2.8946551       0.99998727    1.5713283e-07
       2.9182550       0.99998706    1.6233982e-07
       2.9420472       0.99998684    1.6773578e-07
       2.9660335       0.99998662    1.7328683e-07
       2.9902152       0.99998640    1.7904460e-07
       3.0145942       0.99998618    1.8496530e-07
       3.0391719       0.99998595    1.9110856e-07
       3.0639499       0.99998572    1.9742123e-07
       3.0889300       0.99998548    2.0398192e-07
       3.1141138       0.99998524    2.1072254e-07
       3.1395029       0.99998500    2.1770994e-07
       3.1650989       0.99998475    2.2487741e-07
       3.1909037       0.99998450    2.3231776e-07
       3.2169188       0.99998424    2.3994787e-07
       3.2431460       0.99998398    2.4787587e-07
       3.2695871       0.99998372    2.5600257e-07
       3.2962437       0.99998345    2.6444372e-07
       3.3231177       0.99998317    2.7309053e-07
       3.3502107       0.99998289    2.8208231e-07
       3.3775247       0.99998261    2.9128993e-07
       3.4050613       0.99998232    3.0087437e-07
       3.4328224       0.99998203    3.1068411e-07
       3.4608099       0.99998173    3.2088500e-07
       3.4890255       0.99998143    3.3131798e-07
       3.5174712       0.99998112    3.4218018e-07
       3.5461488       0.99998081    3.5328460e-07
       3.5750602       0.99998049    3.6485004e-07
       3.6042074       0.99998017    3.7666728e-07
       3.6335921       0.99997984    3.8898054e-07
       3.6632164       0.99997951    4.0155546e-07
       3.6930823       0.99997917    4.1466433e-07
       3.7231916       0.99997882    4.2804785e-07
       3.7535465       0.99997847    4.4200891e-07
       3.7841488       0.99997812    4.5626650e-07
       3.8150006       0.99997775    4.7111817e-07
       3.8461039       0.99997739    4.8629397e-07
       3.8774608       0.99997701    5.0210119e-07
       3.9090734       0.99997663    5.1826188e-07
       3.9409437       0.99997624    5.3508074e-07
       3.9730738       0.99997585    5.5228379e-07
       4.0054659       0.99997545    5.7017971e-07
       4.0381221       0.99997504    5.8849379e-07
       4.0710445       0.99997463    6.0752990e-07
       4.1042353       0.99997421    6.2701995e-07
       4.1376967       0.99997378    6.4726325e-07
       4.1714310       0.99997335    6.6800336e-07
       4.2054403       0.99997291    6.8955305e-07
       4.2397268       0.99997246    7.1164067e-07
       4.2742929       0.99997200    7.3456515e-07
       4.3091408       0.99997154    7.5807220e-07
       4.3442728       0.99997106    7.8245195e-07
       4.3796912       0.99997058    8.0746373e-07
       4.4153984       0.99997010    8.3338808e-07
       4.4513967       0.99996960    8.6000091e-07
       4.4876885       0.99996910    8.8757827e-07
       4.5242762       0.99996858    9.1590274e-07
       4.5611622       0.99996806    9.4524211e-07
       4.5983489       0.99996753    9.7538819e-07
       4.6358388       0.99996700    1.0065896e-06
       4.6736344       0.99996645    1.0386641e-06
       4.7117381       0.99996589    1.0718418e-06
       4.7501524       0.99996533    1.1059677e-06
       4.7888799       0.99996475    1.1412534e-06
       4.8279232       0.99996417    1.1775648e-06
       4.8672848       0.99996357    1.2150900e-06
       4.9069673       0.99996297    1.2537293e-06
       4.9469733       0.99996235    1.2936434e-06
       4.9873055       0.99996173    1.3347452e-06
       5.0279666       0.99996110    1.3771592e-06
       5.0689591       0.99996045    1.4208802e-06
       5.1102858       0.99995979    1.4660003e-06
       5.1519495       0.99995913    1.5125196e-06
       5.1939528       0.99995845    1.5604894e-06
       5.2362986       0.99995776    1.6099692e-06
       5.2789897       0.99995706    1.6609640e-06
       5.3220288       0.99995635    1.7135969e-06
       5.3654187       0.99995562    1.7678178e-06
       5.4091625       0.99995489    1.8238046e-06
       5.4532629       0.99995414    1.8814515e-06
       5.4977228       0.99995338    1.9409941e-06
       5.5425452       0.99995261    2.0022625e-06
       5.5877330       0.99995182    2.0655890e-06
       5.6332893       0.99995102    2.1307229e-06
       5.6792169       0.99995021    2.1980693e-06
       5.7255190       0.99994938    2.2673005e-06
       5.7721986       0.99994854    2.3389112e-06
       5.8192588       0.99994769    2.4124832e-06
       5.8667027       0.99994682    2.4886444e-06
       5.9145333       0.99994594    2.5668641e-06
       5.9627539       0.99994505    2.6478519e-06
       6.0113677       0.99994414    2.7309775e-06
       6.0603778       0.99994321    2.8170661e-06
       6.1097875       0.99994227    2.9053716e-06
       6.1596000       0.99994131    2.9962499e-06
       6.2098186       0.99994034    3.0892257e-06
       6.2604467       0.99993935    3.1861267e-06
       6.3114875       0.99993835    3.2855729e-06
       6.3629444       0.99993733    3.3887902e-06
       6.4148209       0.99993629    3.4945330e-06
       6.4671203       0.99993523    3.6043421e-06
       6.5198461       0.99993416    3.7167852e-06
       6.5730018       0.99993307    3.8336107e-06
       6.6265908       0.99993196    3.9531725e-06
       6.6806168       0.99993083    4.0774579e-06
       6.7350832       0.99992969    4.2045882e-06
       6.7899937       0.99992853    4.3368194e-06
       6.8453519       0.99992734    4.4720147e-06
       6.9011614       0.99992614    4.6126661e-06
       6.9574259       0.99992492    4.7563938e-06
       7.0141491       0.99992368    4.9058121e-06
       7.0713348       0.99992242    5.0584121e-06
       7.1289867       0.99992114    5.2170347e-06
       7.1871086       0.99991983    5.3789480e-06
       7.2457044       0.99991851    5.5466638e-06
       7.3047779       0.99991716    5.7178588e-06
       7.3643331       0.99991580    5.8961031e-06
       7.4243738       0.99991441    6.0781204e-06
       7.4849040       0.99991299    6.2675369e-06
       7.5459277       0.99991156    6.4610579e-06
       7.6074489       0.99991010    6.6622769e-06
       7.6694717       0.99990862    6.8679791e-06
       7.7320001       0.99990711    7.0818774e-06
       7.7950384       0.99990558    7.3006419e-06
       7.8585906       0.99990403    7.5279624e-06
       7.9226609       0.99990245    7.7605411e-06
       7.9872536       0.99990084    8.0019043e-06
       8.0523729       0.99989921    8.2490370e-06
       8.1180231       0.99989755    8.5056990e-06
       8.1842086       0.99989587    8.7685457e-06
       8.2509337       0.99989416    9.0410011e-06
       8.3182027       0.99989243    9.3196197e-06
       8.3860202       0.99989066    9.6062708e-06
       8.4543906       0.99988887    9.8999217e-06
       8.5233185       0.99988705    1.0203457e-05
       8.5928082       0.99988520    1.0514630e-05
       8.6628646       0.99988332    1.0836447e-05
       8.7334921       0.99988141    1.1166688e-05
       8.8046954       0.99987947    1.1508536e-05
       8.8764792       0.99987750    1.1859412e-05
       8.9488483       0.99987550    1.2222211e-05
       9.0218074       0.99987347    1.2594804e-05
       9.0953613       0.99987140    1.2979950e-05
       9.1695149       0.99986930    1.3375770e-05
       9.2442731       0.99986717    1.3784845e-05
       9.3196408       0.99986501    1.4205381e-05
       9.3956229       0.99986281    1.4639674e-05
       9.4722245       0.99986058    1.5086389e-05
       9.5494506       0.99985831    1.5547570e-05
       9.6273064       0.99985601    1.6022161e-05
       9.7057969       0.99985367    1.6511875e-05
       9.7849273       0.99985130    1.7014861e-05
       9.8647029       0.99984890    1.7532107e-05
       9.9451288       0.99984646    1.8063863e-05
       10.026211       0.99984398    1.8610876e-05
       10.107953       0.99984146    1.9173533e-05
       10.190362       0.99983890    1.9752194e-05
       10.273443       0.99983630    2.0348588e-05
       10.357202       0.99983367    2.0962550e-05
       10.441643       0.99983099    2.1595648e-05
       10.526773       0.99982827    2.2247097e-05
       10.612597       0.99982552    2.2919144e-05
       10.699120       0.99982272    2.3610337e-05
       10.786349       0.99981988    2.4323564e-05
       10.874289       0.99981699    2.5056697e-05
       10.962946       0.99981407    2.5813703e-05
       11.052326       0.99981110    2.6591612e-05
       11.142434       0.99980809    2.7395394e-05
       11.233278       0.99980504    2.8221045e-05
       11.324861       0.99980194    2.9074271e-05
       11.417192       0.99979880    2.9950164e-05
       11.510275       0.99979562    3.0855851e-05
       11.604117       0.99979239    3.1785183e-05
       11.698725       0.99978912    3.2746359e-05
       11.794103       0.99978580    3.3732153e-05
       11.890259       0.99978244    3.4747341e-05
       11.987199       0.99977903    3.5786288e-05
       12.084930       0.99977558    3.6856702e-05
       12.183457       0.99977207    3.7951944e-05
       12.282788       0.99976851    3.9093481e-05
       12.382928       0.99976491    4.0264535e-05
       12.483885       0.99976126    4.1479068e-05
       12.585665       0.99975756    4.2722696e-05
       12.688275       0.99975383    4.4012911e-05
       12.791721       0.99975004    4.5333322e-05
       12.896010       0.99974622    4.6702677e-05
       13.001150       0.99974234    4.8103223e-05
       13.107148       0.99973844    4.9546854e-05
       13.214009       0.99973449    5.1021447e-05
       13.321741       0.99973051    5.2539674e-05
       13.430352       0.99972648    5.4089781e-05
       13.539849       0.99972239    5.5646670e-05
       13.650238       0.99971825    5.7232697e-05
       13.761527       0.99971405    5.8876559e-05
       13.873723       0.99970978    6.0554358e-05
       13.986834       0.99970547    6.2294052e-05
       14.100868       0.99970108    6.4069101e-05
       14.215831       0.99969665    6.5910008e-05
       14.331731       0.99969215    6.7789217e-05
       14.448576       0.99968760    6.9764407e-05
       14.566374       0.99968297    7.1782622e-05
       14.685132       0.99967832    7.3906609e-05
       14.804859       0.99967360    7.6078567e-05
       14.925561       0.99966889    7.8361125e-05
       15.047248       0.99966411    8.0693993e-05
       15.169927       0.99965933    8.3114364e-05
       15.293606       0.99965449    8.5589273e-05
       15.418293       0.99964966    8.8155911e-05
       15.543997       0.99964477    9.0781597e-05
       15.670725       0.99963989    9.3503010e-05
       15.798487       0.99963497    9.6281967e-05
       15.927291       0.99963008    9.9130521e-05
       16.057145       0.99962514    0.00010203765
       16.188057       0.99962020    0.00010500894
       16.320037       0.99961521    0.00010804819
       16.453092       0.99961022    0.00011117937
       16.587233       0.99960518    0.00011438619
       16.722467       0.99960017    0.00011769836
       16.858803       0.99959512    0.00012109197
       16.996252       0.99959011    0.00012459592
       17.134820       0.99958509    0.00012818921
       17.274519       0.99958013    0.00013190172
       17.415356       0.99957518    0.00013567662
       17.557342       0.99957036    0.00013950116
       17.700486       0.99956550    0.00014336944
       17.844796       0.99956065    0.00014725159
       17.990283       0.99955574    0.00015124383
       18.136956       0.99955078    0.00015537457
       18.284825       0.99954582    0.00015967992
       18.433899       0.99954087    0.00016421890
       18.584189       0.99953605    0.00016898012
       18.735704       0.99953144    0.00017402675
       18.888454       0.99952701    0.00017921753
       19.042450       0.99952284    0.00018456842
       19.197701       0.99951892    0.00019003042
       19.354218       0.99951530    0.00019560616
       19.512011       0.99951194    0.00020126931
       19.671091       0.99950887    0.00020701944
       19.831467       0.99950609    0.00021287873
       19.993151       0.99950362    0.00021884899
       20.156154       0.99950158    0.00022498410
       20.320485       0.99949995    0.00023128207
       20.486156       0.99949895    0.00023776127
       20.653177       0.99949848    0.00024441420
       20.821561       0.99949895    0.00025126095
       20.991317       0.99950014    0.00025828868
       21.162457       0.99950275    0.00026553406
       21.334993       0.99950635    0.00027297473
       21.508935       0.99951228    0.00028065627
       21.684295       0.99951971    0.00028854579
       21.861085       0.99953149    0.00029674233
       22.039316       0.99954583    0.00030518267
       22.219001       0.99957075    0.00031389911
       22.400150       0.99960126    0.00032284107
       22.582776       0.99973993    0.00033206851
       22.766892       0.99992852    0.00034152596
       22.952508       0.99992027    1.8194359e-05
       23.139637       0.99967466    1.8726400e-05
       23.328293       0.99958085    1.9276304e-05
       23.518486       0.99953843    1.9839656e-05
       23.710230       0.99950720    2.0422345e-05
       23.903537       0.99947890    2.1019091e-05
       24.098420       0.99945503    2.1637067e-05
       24.294892       0.99943195    2.2269808e-05
       24.492966       0.99941122    2.2924743e-05
       24.692655       0.99939069    2.3594890e-05
       24.893972       0.99937158    2.4288370e-05
       25.096930       0.99935243    2.4997567e-05
       25.301543       0.99933420    2.5732573e-05
       25.507824       0.99931581    2.6484066e-05
       25.715787       0.99929804    2.7263229e-05
       25.925445       0.99928005    2.8059510e-05
       26.136813       0.99926249    2.8885486e-05
       26.349904       0.99924466    2.9729226e-05
       26.564732       0.99922712    3.0604162e-05
       26.781312       0.99920930    3.1497502e-05
       26.999657       0.99919166    3.2424926e-05
       27.219783       0.99917371    3.3371490e-05
       27.441703       0.99915588    3.4355128e-05
       27.665432       0.99913773    3.5358889e-05
       27.890986       0.99911962    3.6402276e-05
       28.118378       0.99910119    3.7467250e-05
       28.347625       0.99908274    3.8572769e-05
       28.578740       0.99906398    3.9701641e-05
       28.811740       0.99904514    4.0872607e-05
       29.046639       0.99902599    4.2068844e-05
       29.283454       0.99900672    4.3309230e-05
       29.522199       0.99898713    4.4576966e-05
       29.762891       0.99896738    4.5891009e-05
       30.005545       0.99894731    4.7234687e-05
       30.250177       0.99892706    4.8627634e-05
       30.496804       0.99890647    5.0052396e-05
       30.745441       0.99888567    5.1526995e-05
       30.996106       0.99886454    5.3035917e-05
       31.248814       0.99884316    5.4597097e-05
       31.503583       0.99882145    5.6194976e-05
       31.760428       0.99879947    5.7846399e-05
       32.019368       0.99877714    5.9534082e-05
       32.280419       0.99875453    6.1266691e-05
       32.543598       0.99873155    6.3039784e-05
       32.808923       0.99870825    6.4866053e-05
       33.076411       0.99868458    6.6737810e-05
       33.346079       0.99866058    6.8670876e-05
       33.617947       0.99863618    7.0652909e-05
       33.892031       0.99861144    7.2699086e-05
       34.168349       0.99858630    7.4797932e-05
       34.446920       0.99856078    7.6963601e-05
       34.727763       0.99853486    7.9185843e-05
       35.010895       0.99850855    8.1477632e-05
       35.296335       0.99848181    8.3830607e-05
       35.584103       0.99845467    8.6256893e-05
       35.874217       0.99842709    8.8748761e-05
       36.166696       0.99839908    9.1316829e-05
       36.461559       0.99837063    9.3955329e-05
       36.758827       0.99834172    9.6673214e-05
       37.058518       0.99831236    9.9467058e-05
       37.360653       0.99828252    0.00010234407
       37.665250       0.99825221    0.00010530247
       37.972331       0.99822141    0.00010834740
       38.281916       0.99819012    0.00011148030
       38.594025       0.99815832    0.00011470412
       38.908678       0.99812601    0.00011802183
       39.225897       0.99809318    0.00012143365
       39.545702       0.99805982    0.00012494632
       39.868114       0.99802591    0.00012855713
       40.193155       0.99799146    0.00013227619
       40.520846       0.99795645    0.00013609760
       40.851209       0.99792086    0.00014003560
       41.184265       0.99788470    0.00014408067
       41.520036       0.99784795    0.00014825055
       41.858545       0.99781059    0.00015253190
       42.199813       0.99777263    0.00015694769
       42.543864       0.99773404    0.00016147990
       42.890720       0.99769483    0.00016615553
       43.240404       0.99765497    0.00017095196
       43.592939       0.99761447    0.00017590066
       43.948348       0.99757330    0.00018097459
       44.306655       0.99753147    0.00018620050
       44.667883       0.99748894    0.00019155165
       45.032056       0.99744572    0.00019705451
       45.399198       0.99740179    0.00020268367
       45.769333       0.99735711    0.00020847791
       46.142486       0.99731168    0.00021440465
       46.518681       0.99726547    0.00022052857
       46.897943       0.99721848    0.00022679671
       47.280298       0.99717070    0.00023327585
       47.665769       0.99712211    0.00023990492
       48.054384       0.99707269    0.00024676015
       48.446167       0.99702244    0.00025377134
       48.841143       0.99697131    0.00026102338
       49.239341       0.99691933    0.00026843732
       49.640784       0.99686640    0.00027611138
       50.045501       0.99681259    0.00028395405
       50.453517       0.99675778    0.00029207324
       50.864859       0.99670205    0.00030036706
       51.279556       0.99664498    0.00030895701
       51.697633       0.99658691    0.00031772835
       52.119119       0.99652760    0.00032760567
       52.544041       0.99646727    0.00033773409
       52.972427       0.99640658    0.00034851112
       53.404306       0.99634490    0.00035951985
       53.839707       0.99628237    0.00037100245
       54.278657       0.99621879    0.00038272504
       54.721185       0.99615431    0.00039494626
       55.167322       0.99608877    0.00040742837
       55.617096       0.99602229    0.00042043408
       56.070536       0.99595472    0.00043372463
       56.527674       0.99588616    0.00044756723
       56.988539       0.99581648    0.00046172098
       57.453161       0.99574580    0.00047645360
       57.921571       0.99567397    0.00049152480
       58.393800       0.99560111    0.00050720118
       58.869879       0.99552708    0.00052324721
       59.349839       0.99545199    0.00053993416
       59.833713       0.99537570    0.00055702327
       60.321531       0.99529836    0.00057478044
       60.813327       0.99521979    0.00059297572
       61.309132       0.99514015    0.00061187599
       61.808979       0.99505927    0.00063125275
       62.312902       0.99497733    0.00065136715
       62.820933       0.99489413    0.00067199925
       63.333106       0.99480988    0.00069340578
       63.849455       0.99472438    0.00071537463
       64.370013       0.99463787    0.00073815498
       64.894816       0.99455014    0.00076154827
       65.423897       0.99446147    0.00078579847
       65.957292       0.99437165    0.00081071016
       66.495035       0.99428106    0.00083651109
       67.037163       0.99418961    0.00086303452
       67.583710       0.99409794    0.00089049952
       68.134713       0.99400572    0.00091734087
       68.690209       0.99391370    0.00094256295
       69.250234       0.99381931    0.00096774216
       69.814824       0.99372191    0.00099252492
       70.384018       0.99362258     0.0010179143
       70.957852       0.99352109     0.0010439853
       71.536364       0.99341779     0.0010706981
       72.119593       0.99331259     0.0010981137
       72.707578       0.99320560     0.0011262156
       73.300355       0.99309675     0.0011550519
       73.897966       0.99298607     0.0011846188
       74.500449       0.99287353     0.0012149495
       75.107844       0.99275913     0.0012460507
       75.720191       0.99264284     0.0012779392
       76.337530       0.99252466     0.0013106583
       76.959903       0.99240454     0.0013442067
       77.587350       0.99228247     0.0013786312
       78.219912       0.99215843     0.0014139119
       78.857631       0.99203241     0.0014501299
       79.500550       0.99190436     0.0014872412
       80.148710       0.99177426     0.0015253407
       80.802155       0.99164207     0.0015643616
       81.460927       0.99150778     0.0016044493
       82.125070       0.99137134     0.0016455046
       82.794628       0.99123276     0.0016876829
       83.469644       0.99109196     0.0017308603
       84.150164       0.99094894     0.0017752346
       84.836232       0.99080365     0.0018206476
       85.527894       0.99065607     0.0018673368
       86.225195       0.99050614     0.0019151073
       86.928180       0.99035388     0.0019642232
       87.636897       0.99019918     0.0020144572
       88.351392       0.99004204     0.0020661384
       89.071713       0.98988237     0.0021189886
       89.797906       0.98972015     0.0021733667
       90.530020       0.98955530     0.0022289536
       91.268102       0.98938756     0.0022861619
       92.012202       0.98921704     0.0023446236
       92.762369       0.98904384     0.0024060336
       93.518651       0.98886785     0.0024690616
       94.281100       0.98868996     0.0025340427
       95.049764       0.98850938     0.0026004329
       95.824696       0.98832645     0.0026688916
       96.605945       0.98814066     0.0027388105
       97.393564       0.98795245     0.0028109435
       98.187605       0.98776128     0.0028845934
       98.988119       0.98756764     0.0029605665
       99.795159       0.98737095     0.0030381084
       100.60878       0.98717177     0.0031181337
       101.42903       0.98696944     0.0031997881
       102.25597       0.98676459     0.0032840842
       103.08966       0.98655649     0.0033700696
       103.93014       0.98634589     0.0034588790
       104.77747       0.98613193     0.0035494457
       105.63171       0.98591548     0.0036429968
       106.49292       0.98569560     0.0037384035
       107.36114       0.98547320     0.0038369146
       108.23645       0.98524732     0.0039374149
       109.11889       0.98501895     0.0040411775
       110.00852       0.98478704     0.0041470664
       110.90541       0.98455270     0.0042563341
       111.80961       0.98431479     0.0043678797
       112.72119       0.98407444     0.0044829622
       113.64019       0.98383052     0.0046004816
       114.56669       0.98358426     0.0047216902
       115.50074       0.98333443     0.0048455008
       116.44241       0.98308240     0.0049731288
       117.39175       0.98282685     0.0051035480
       118.34883       0.98256936     0.0052379942
       119.31372       0.98230846     0.0053754114
       120.28647       0.98204602     0.0055169715
       121.26716       0.98178053     0.0056617223
       122.25584       0.98151458     0.0058108501
       123.25258       0.98124642     0.0059633799
       124.25744       0.98098005     0.0061204297
       125.27050       0.98071216     0.0062767787
       126.29182       0.98044719     0.0064257760
       127.32147       0.98017561     0.0065761529
       128.35951       0.97989341     0.0067258406
       129.40601       0.97960603     0.0068787153
       130.46104       0.97931229     0.0070353000
       131.52468       0.97901370     0.0071952579
       132.59699       0.97870982     0.0073590838
       133.67804       0.97840115     0.0075264648
       134.76790       0.97808749     0.0076978449
       135.86665       0.97776905     0.0078729836
       136.97436       0.97744577     0.0080522807
       138.09110       0.97711764     0.0082355493
       139.21694       0.97678467     0.0084231371
       140.35196       0.97644686     0.0086149167
       141.49624       0.97610423     0.0088111769
       142.64984       0.97575669     0.0090118644
       143.81285       0.97540422     0.0092172058
       144.98535       0.97504681     0.0094272123
       146.16740       0.97468442     0.0096420379
       147.35909       0.97431704     0.0098618007
       148.56049       0.97394459      0.010086573
       149.77169       0.97356710      0.010316517
       150.99277       0.97318442      0.010551620
       152.22379       0.97279663      0.010792217
       153.46486       0.97240352      0.011038197
       154.71604       0.97200528      0.011289962
       155.97743       0.97160160      0.011547299
       157.24910       0.97119275      0.011810767
       158.53114       0.97077831      0.012080031
       159.82362       0.97035866      0.012355773
       161.12665       0.96993328      0.012637533
       162.44030       0.96950274      0.012926095
       163.76466       0.96906635      0.013220880
       165.09982       0.96862470      0.013522866
       166.44586       0.96817701      0.013831315
       167.80288       0.96772412      0.014147390
       169.17096       0.96726506      0.014470179
       170.55019       0.96680071      0.014800989
       171.94067       0.96632998      0.015138752
       173.34249       0.96585384      0.015484980
       174.75573       0.96537111      0.015838415
       176.18050       0.96488235      0.016201207
       177.61688       0.96438659      0.016571603
       179.06498       0.96388651      0.016953352
       180.52487       0.96337974      0.017343395
       181.99668       0.96286911      0.017743562
       183.48048       0.96235168      0.018151852
       184.97638       0.96183015      0.018570864
       186.48447       0.96130153      0.018998300
       188.00486       0.96076897      0.019437042
       189.53765       0.96022912      0.019884517
       191.08293       0.95968556      0.020343924
       192.64081       0.95913451      0.020812382
       194.21139       0.95858016      0.021293437
       195.79478       0.95801811      0.021783866
       197.39107       0.95745302      0.022287437
       199.00038       0.95688002      0.022800706
       200.62281       0.95630443      0.023327975
       202.25847       0.95572070      0.023865298
       203.90747       0.95513495      0.024417218
       205.56990       0.95454091      0.024979603
       207.24590       0.95394503      0.025557411
       208.93555       0.95334088      0.026146248
       210.63898       0.95273551      0.026751223
       212.35630       0.95212201      0.027367877
       214.08762       0.95150750      0.028001227
       215.83306       0.95088508      0.028646941
       217.59272       0.95026235      0.029310046
       219.36674       0.94963198      0.029986245
       221.15521       0.94900185      0.030680575
       222.95827       0.94836447      0.031388762
       224.77603       0.94772805      0.032115714
       226.60860       0.94708490      0.032857337
       228.45612       0.94644378      0.033618486
       230.31870       0.94579655      0.034395175
       232.19647       0.94515228      0.035192194
       234.08954       0.94450280      0.036005645
       235.99805       0.94385788      0.036840168
       237.92212       0.94320901      0.037692102
       239.86188       0.94256697      0.038566004
       241.81745       0.94192272      0.039458326
       243.78896       0.94128817      0.040373439
       245.77655       0.94065487      0.041308018
       247.78034       0.94003788      0.042266209
       249.80047       0.93943245      0.043244973
       251.83707       0.93886441      0.044248198
       253.89028       0.93830709      0.045239750
       255.96022       0.93777917      0.046185374
       258.04704       0.93722983      0.047133587
       260.15087       0.93664371      0.048071321
       262.27186       0.93604503      0.049027520
       264.41013       0.93542893      0.050003753
       266.56584       0.93480491      0.050999361
       268.73913       0.93417213      0.052015757
       270.93013       0.93353353      0.053052452
       273.13900       0.93288948      0.054110673
       275.36588       0.93224120      0.055190204
       277.61091       0.93158943      0.056292083
       279.87424       0.93093501      0.057416270
       282.15603       0.93027858      0.058563550
       284.45642       0.92962097      0.059734267
       286.77557       0.92896250      0.060928971
       289.11362       0.92830468      0.062148187
       291.47073       0.92764723      0.063392191
       293.84707       0.92699222      0.064661958
       296.24277       0.92633855      0.065957464
       298.65801       0.92568992      0.067280116
       301.09294       0.92504407      0.068629529
       303.54772       0.92440583      0.070006518
       306.02252       0.92377148      0.071410558
       308.51749       0.92314732      0.072844337
       311.03281       0.92252806      0.074306724
       313.56863       0.92192395      0.075800333
       316.12512       0.92132701      0.077323601
       318.70246       0.92075078      0.078879691
       321.30081       0.92018388      0.080466527
       323.92034       0.91964620      0.082087740
       326.56123       0.91912116      0.083740762
       329.22366       0.91863940      0.085429993
       331.90778       0.91817557      0.087152241
       334.61380       0.91778394      0.088912359
       337.34187       0.91742052      0.090706614
       340.09219       0.91725167      0.092468594
       342.86492       0.91715250      0.094240686
       345.66027       0.91696388      0.095769126
       348.47840       0.91675378      0.097244221
       351.31951       0.91645872      0.098745450
       354.18379       0.91614518       0.10027119
       357.07142       0.91578762       0.10182385
       359.98258       0.91542248       0.10340177
       362.91749       0.91503521       0.10500826
       365.87632       0.91464545       0.10664095
       368.85927       0.91424311       0.10830356
       371.86655       0.91384028       0.10999327
       374.89834       0.91343072       0.11171428
       377.95485       0.91302168       0.11346329
       381.03628       0.91261087       0.11524507
       384.14283       0.91220131       0.11705580
       387.27471       0.91179470       0.11890095
       390.43212       0.91138993       0.12077603
       393.61528       0.91099200       0.12268720
       396.82438       0.91059627       0.12462930
       400.05966       0.91021109       0.12660674
       403.32130       0.90982853       0.12861615
       406.60954       0.90945383       0.13066215
       409.92459       0.90908220       0.13274207
       413.26667       0.90871794       0.13487560
       460.174      0.797000      0.241400
       499.980      0.821000      0.299800
       539.348      0.835000      0.331000
       579.346      0.832000      0.373900
       619.559      0.841000      0.455800
       660.487      0.904000      0.535500
       699.780      0.982000      0.579100
       739.605       1.05000      0.580500
       779.994       1.08800      0.598100
       820.299       1.14100      0.629200
       859.063       1.21500      0.657300
       899.253       1.30300      0.652800
       939.812       1.38800      0.629200
       979.382       1.45600      0.575200
       1020.92       1.49300      0.518500
       1059.21       1.51600      0.470700
       1099.02       1.52900      0.430300
       1140.26       1.54300      0.398800
       1180.31       1.55300      0.370500
       1218.84       1.57000      0.349000
       1258.92       1.60600      0.322000
       1300.17       1.63400      0.239200
       1339.72       1.58600      0.148900
       1380.39       1.49600      0.142200
       1418.99       1.46200      0.192700
       1458.73       1.46900      0.240900
       1499.64       1.52100      0.277200
       1541.71       1.59700      0.258100
       1581.22       1.64100      0.202200
       1621.73       1.65300      0.135100
       1659.42       1.64700     0.0724100
       1698.31       1.60600    0.00399800
       1741.78       1.54900    0.00118200
       1798.82       1.51300   5.99500e-05
       1901.07       1.47500   3.62200e-07
       1999.94       1.45200   1.10100e-07
       2099.01       1.43500   3.84400e-08
       2249.11       1.41600   1.15800e-08
       2500.50       1.39500   9.30700e-09
       2747.91       1.38100   6.29200e-09
       2999.25       1.37100   4.14800e-09
       3250.83       1.36400   3.08200e-09
       3498.80       1.35800   2.52800e-09
       3749.36       1.35400   2.03100e-09
       3999.87       1.35000   1.58000e-09
       4246.18       1.34700   1.16900e-09
       4498.22       1.34400   8.08700e-10
       4752.74       1.34200   7.01100e-10
       4999.80       1.33900   9.24300e-10
       5249.16       1.33800   1.64000e-09
       5494.35       1.33600   2.44200e-09
       5753.40       1.33400   3.84400e-09
       5998.65       1.33300   9.63400e-09
       6249.62       1.33200   1.47200e-08
       6501.65       1.33100   1.67400e-08
       6742.81       1.33000   2.17700e-08
       6997.80       1.32900   3.34800e-08
       7246.06       1.32800   9.13700e-08
       7495.77       1.32700   1.55900e-07
       7745.85       1.32700   1.47800e-07
       7999.74       1.32600   1.25000e-07
       8243.90       1.32500   1.81900e-07
       8488.87       1.32500   2.92900e-07
       8748.85       1.32400   3.90700e-07
       8992.53       1.32400   4.86200e-07
       9250.17       1.32300   1.06000e-06
       9505.48       1.32300   2.93200e-06
       9746.09       1.32200   3.48000e-06
       10000.0       1.32200   3.00000e-06
       10495.2       1.32100   1.41900e-06
       10990.2       1.32000   1.70800e-06
       11507.3       1.31900   9.30600e-06
       11993.8       1.31800   1.19900e-05
       12502.6       1.31700   1.10000e-05
       13001.7       1.31600   1.40000e-05
       13489.3       1.31500   4.04700e-05
       13995.3       1.31400   0.000153000
       14488.0       1.31300   0.000363700
       14996.4       1.31200   0.000224800
       15486.5       1.31100   0.000134800
       15994.3       1.31000   9.34700e-05
       16481.9       1.30800   7.59100e-05
       16983.1       1.30700   7.74300e-05
       17497.2       1.30500   0.000100000
       17988.2       1.30300   0.000135900
       18490.4       1.30100   0.000186100
       19010.7       1.29900    0.00116100
       19496.2       1.29800    0.00184800
       19999.4       1.29700    0.00110100
       20511.9       1.29400   0.000674200
       20990.1       1.29200   0.000464300
       21477.0       1.28900   0.000370500
       21977.2       1.28600   0.000337900
       22491.1       1.28200   0.000373900
       23014.2       1.27800   0.000468600
       23495.3       1.27300   0.000636500
       23985.8       1.26800   0.000909500
       24490.8       1.26100    0.00134800
       25005.0       1.25300    0.00190000
       25528.7       1.24300    0.00214200
       25646.4       1.24000    0.00226600
       25939.4       1.23200    0.00247600
       26300.9       1.21800    0.00401600
       26665.8       1.19900    0.00732500
       27040.3       1.17500     0.0164000
       27411.0       1.14200     0.0462200
       27800.1       1.13100     0.0928500
       28183.7       1.12500      0.142200
       28578.7       1.14500      0.206000
       28976.1       1.19600      0.258100
       29376.4       1.26400      0.280400
       29849.5       1.33400      0.272100
       31988.2       1.46200     0.0924300
       39539.5       1.33700    0.00415700
       41980.2       1.32400    0.00688300
       44462.8       1.31500     0.0114000
       46990.6       1.31100     0.0157000
       49552.4       1.30700     0.0131200
       52000.7       1.29800     0.0101100
       54434.5       1.28200     0.0107800
       57010.2       1.25700     0.0203100
       59557.1       1.23200     0.0864600
       61955.9       1.34200     0.0878600
       63976.5       1.32500     0.0448500
       66530.7       1.30900     0.0345000
       69012.0       1.29800     0.0322000
       71425.3       1.29100     0.0320500
       73960.5       1.28400     0.0324200
       76568.7       1.27700     0.0330200
       79048.7       1.27000     0.0339500
       81496.1       1.26400     0.0349000
       83957.5       1.25700     0.0360400
       86499.7       1.24900     0.0374800
       88887.3       1.24100     0.0391600
       91403.7       1.23300     0.0411000
       93981.2       1.22300     0.0433300
       96617.8       1.21100     0.0460000
       99104.7       1.19900     0.0492900
       101382.       1.18400     0.0538000
       103993.       1.16700     0.0619100
       106411.       1.15000     0.0735900
       108888.       1.13400     0.0897000
       111433.       1.11900      0.108300
       114026.       1.10500      0.132100
       116413.       1.09600      0.157000
       119108.       1.08700      0.186500
       121621.       1.08700      0.217700
       123881.       1.09200      0.247600
       126465.       1.10500      0.274000
       129111.       1.11700      0.297700
       131521.       1.13100      0.318300
       133972.       1.14600      0.336300
       136458.       1.16200      0.351400
       138999.       1.17900      0.364600
       141577.       1.19600      0.375700
       143880.       1.20900      0.384400
       146557.       1.22600      0.393400
       148937.       1.23900      0.399800
       151348.       1.25400      0.405300
       154171.       1.26800      0.411900
       156659.       1.28300      0.417600
       158851.       1.29500      0.420500
       161441.       1.30900      0.424400
       164062.       1.32300      0.426400
       166327.       1.33500      0.428300
       169028.       1.35000      0.429300
       171402.       1.36100      0.429300
       174178.       1.37500      0.429300
       176610.       1.38600      0.428300
       179043.       1.39600      0.426400
       181547.       1.40700      0.425400
       184053.       1.41800      0.423400
       186630.       1.42800      0.419600
       188778.       1.43600      0.415700
       191416.       1.44600      0.411000
       194092.       1.45400      0.407200
       196342.       1.46000      0.401600
       199075.       1.46700      0.395200
       230142.       1.51600      0.362900
       279865.       1.54600      0.299100
       330349.       1.51200      0.283000
       380213.       1.48100      0.319000
       429532.       1.48100      0.388000
       479836.       1.52000      0.457900
       559881.       1.61900      0.516200
       660487.       1.72900      0.523300
       760427.       1.80600      0.507900
       859063.       1.86000      0.477300
       959672.       1.89100      0.448500
   1.30017e+06       1.92000      0.418600
   1.79882e+06       1.95600      0.450600
   2.30142e+06       2.00100      0.496400
   2.79865e+06       2.04500      0.535500
   3.59696e+06       2.09900      0.596700
   4.60174e+06       2.16600      0.672700
   5.59881e+06       2.22000      0.735900
   7.49577e+06       2.29000      0.872500
   1.00000e+07       2.39900       1.04200
   1.49986e+07       2.62900       1.39300
   1.99994e+07       2.88200       1.67000
   2.49990e+07       3.13400       1.89100
   3.00019e+07       3.37500       2.07900
   3.50008e+07       3.60700       2.22800
   3.99987e+07       3.82900       2.36000
   4.50034e+07       4.04500       2.46000
   4.99980e+07       4.24800       2.55100
   5.50044e+07       4.44200       2.62500
   6.00213e+07       4.63100       2.68500
   6.49756e+07       4.81100       2.72700
   6.99780e+07       4.98000       2.76600
   7.50166e+07       5.14600       2.79200
   7.99974e+07       5.30500       2.81100
   8.50285e+07       5.45900       2.82600
   9.00036e+07       5.60700       2.83200
   9.49602e+07       5.74700       2.83500
   1.00000e+08       5.87900       2.83000
   1.49986e+08       6.86700       2.63000
   1.99994e+08       7.45600       2.33800
   2.49990e+08       7.83100       2.06400
   3.00019e+08       8.07500       1.82400
   3.50008e+08       8.23800       1.62700
   3.99987e+08       8.35300       1.46300
   4.50034e+08       8.43600       1.32700
   4.99980e+08       8.49700       1.21200
   5.50044e+08       8.54600       1.11500
   6.00213e+08       8.58700       1.03100
   6.49756e+08       8.62000      0.958900
   6.99780e+08       8.64800      0.896000
   7.50166e+08       8.67000      0.840600
   7.99974e+08       8.68900      0.791400
   8.49585e+08       8.70500      0.747600
   9.00036e+08       8.72000      0.708300
   9.49602e+08       8.73200      0.673000
   1.00000e+09       8.74300      0.640900
   1.49964e+09       8.80400      0.433700
   1.99994e+09       8.82400      0.327700
   2.50050e+09       8.83300      0.263400
   2.99925e+09       8.83800      0.220200
   3.49880e+09       8.84100      0.189100
   3.99987e+09       8.84300      0.165900
   4.49822e+09       8.84400      0.147800
   4.99980e+09       8.84500      0.133300
   5.49435e+09       8.84600      0.121300
   5.99864e+09       8.84600      0.111400
   6.50165e+09       8.84700      0.103000
   6.99780e+09       8.84700     0.0956700
   7.49577e+09       8.84700     0.0892900
   7.99974e+09       8.84700     0.0839100
   8.48887e+09       8.84700     0.0788500
   8.99253e+09       8.84700     0.0746100
   9.50548e+09       8.84800     0.0707600
   1.00000e+10       8.84800     0.0672700
   1.49964e+10       8.84800     0.0450600
   1.99994e+10       8.84800     0.0339500
   2.50050e+10       8.84900     0.0272100
   2.99925e+10       8.84900     0.0227400
   3.49880e+10       8.84900     0.0195300
   3.99987e+10       8.84900     0.0171300
   4.49822e+10       8.84900     0.0152300
   4.99980e+10       8.84900     0.0137300
   5.49435e+10       8.84900     0.0125000
   5.99865e+10       8.84900     0.0114800
   6.50165e+10       8.84900     0.0106100
   6.99780e+10       8.84900    0.00985800
   7.49577e+10       8.84900    0.00920000
   7.99974e+10       8.84900    0.00862600
   8.48887e+10       8.84900    0.00812400
   8.99253e+10       8.84900    0.00768800
   9.50548e+10       8.84900    0.00729100
   1.00000e+11       8.84900    0.00693100
