;  Optical constants for tetragonal TiO2, ordinary ray
;  
;  Concatenation of:
;
;  TiO2_llnl_cxro + TiO2_palik
;
;    Lambda (A)            n            k
;-----------------------------------------
      0.12398000       0.99999992    2.8967121e-11
      0.12499080       0.99999991    2.9954635e-11
      0.12600983       0.99999991    3.0976713e-11
      0.12703718       0.99999991    3.2034229e-11
      0.12807290       0.99999991    3.3124655e-11
      0.12911707       0.99999991    3.4254536e-11
      0.13016975       0.99999991    3.5418541e-11
      0.13123101       0.99999991    3.6624403e-11
      0.13230092       0.99999990    3.7871424e-11
      0.13337956       0.99999990    3.9159282e-11
      0.13446699       0.99999990    4.0501099e-11
      0.13556329       0.99999990    4.1872895e-11
      0.13666852       0.99999990    4.3307366e-11
      0.13778277       0.99999990    4.4772248e-11
      0.13890610       0.99999989    4.6299509e-11
      0.14003858       0.99999989    4.7876288e-11
      0.14118030       0.99999989    4.9505391e-11
      0.14233133       0.99999989    5.1197334e-11
      0.14349175       0.99999989    5.2930841e-11
      0.14466162       0.99999989    5.4741999e-11
      0.14584103       0.99999988    5.6590598e-11
      0.14703006       0.99999988    5.8522264e-11
      0.14822878       0.99999988    6.0514281e-11
      0.14943728       0.99999988    6.2567283e-11
      0.15065563       0.99999988    6.4696798e-11
      0.15188391       0.99999987    6.6901539e-11
      0.15312220       0.99999987    6.9178346e-11
      0.15437059       0.99999987    7.1534005e-11
      0.15562916       0.99999987    7.3965396e-11
      0.15689799       0.99999987    7.6479183e-11
      0.15817716       0.99999986    7.9077994e-11
      0.15946677       0.99999986    8.1765533e-11
      0.16076688       0.99999986    8.4539862e-11
      0.16207760       0.99999986    8.7427814e-11
      0.16339900       0.99999985    9.0386423e-11
      0.16473118       0.99999985    9.3460049e-11
      0.16607422       0.99999985    9.6641019e-11
      0.16742821       0.99999985    9.9923896e-11
      0.16879323       0.99999984    1.0331748e-10
      0.17016939       0.99999984    1.0682871e-10
      0.17155676       0.99999984    1.1046507e-10
      0.17295545       0.99999984    1.1422479e-10
      0.17436554       0.99999983    1.1809864e-10
      0.17578712       0.99999983    1.2212479e-10
      0.17722030       0.99999983    1.2625685e-10
      0.17866516       0.99999983    1.3056071e-10
      0.18012180       0.99999982    1.3498394e-10
      0.18159031       0.99999982    1.3956913e-10
      0.18307080       0.99999982    1.4429514e-10
      0.18456336       0.99999981    1.4919141e-10
      0.18606809       0.99999981    1.5426301e-10
      0.18758508       0.99999981    1.5949940e-10
      0.18911444       0.99999980    1.6491885e-10
      0.19065628       0.99999980    1.7049250e-10
      0.19221068       0.99999980    1.7630344e-10
      0.19377775       0.99999979    1.8224650e-10
      0.19535760       0.99999979    1.8845522e-10
      0.19695034       0.99999979    1.9480602e-10
      0.19855605       0.99999978    2.0141651e-10
      0.20017486       0.99999978    2.0825599e-10
      0.20180687       0.99999978    2.1529074e-10
      0.20345218       0.99999977    2.2259503e-10
      0.20511091       0.99999977    2.3015449e-10
      0.20678315       0.99999977    2.3791910e-10
      0.20846904       0.99999976    2.4598265e-10
      0.21016867       0.99999976    2.5435284e-10
      0.21188215       0.99999975    2.6289622e-10
      0.21360961       0.99999975    2.7179230e-10
      0.21535114       0.99999975    2.8098816e-10
      0.21710688       0.99999974    2.9052727e-10
      0.21887693       0.99999974    3.0034918e-10
      0.22066141       0.99999973    3.1051498e-10
      0.22246045       0.99999973    3.2105061e-10
      0.22427414       0.99999972    3.3191450e-10
      0.22610263       0.99999972    3.4308662e-10
      0.22794602       0.99999972    3.5467198e-10
      0.22980444       0.99999971    3.6664287e-10
      0.23167802       0.99999971    3.7902385e-10
      0.23356687       0.99999970    3.9183701e-10
      0.23547111       0.99999970    4.0508395e-10
      0.23739089       0.99999969    4.1877133e-10
      0.23932631       0.99999969    4.3291653e-10
      0.24127752       0.99999968    4.4753343e-10
      0.24324463       0.99999968    4.6263188e-10
      0.24522778       0.99999967    4.7826903e-10
      0.24722710       0.99999967    4.9443986e-10
      0.24924272       0.99999966    5.1111703e-10
      0.25127477       0.99999965    5.2832680e-10
      0.25332339       0.99999965    5.4610170e-10
      0.25538871       0.99999964    5.6449456e-10
      0.25747087       0.99999964    5.8353184e-10
      0.25957000       0.99999963    6.0319546e-10
      0.26168625       0.99999962    6.2350003e-10
      0.26381975       0.99999962    6.4445681e-10
      0.26597065       0.99999961    6.6620287e-10
      0.26813908       0.99999961    6.8866089e-10
      0.27032520       0.99999960    7.1187451e-10
      0.27252913       0.99999959    7.3587437e-10
      0.27475103       0.99999959    7.6066772e-10
      0.27699105       0.99999958    7.8630436e-10
      0.27924933       0.99999957    8.1266356e-10
      0.28152603       0.99999957    8.4006276e-10
      0.28382128       0.99999956    8.6828128e-10
      0.28613525       0.99999955    8.9759969e-10
      0.28846808       0.99999954    9.2756722e-10
      0.29081993       0.99999954    9.5888956e-10
      0.29319096       0.99999953    9.9088352e-10
      0.29558132       0.99999952    1.0241786e-09
      0.29799117       0.99999951    1.0585895e-09
      0.30042066       0.99999951    1.0941514e-09
      0.30286996       0.99999950    1.1308520e-09
      0.30533923       0.99999949    1.1688617e-09
      0.30782863       0.99999948    1.2080972e-09
      0.31033833       0.99999947    1.2486140e-09
      0.31286848       0.99999946    1.2905243e-09
      0.31541927       0.99999945    1.3338097e-09
      0.31799085       0.99999945    1.3783605e-09
      0.32058340       0.99999944    1.4247087e-09
      0.32319709       0.99999943    1.4724419e-09
      0.32583208       0.99999942    1.5217002e-09
      0.32848856       0.99999941    1.5727408e-09
      0.33116670       0.99999940    1.6252043e-09
      0.33386667       0.99999939    1.6796186e-09
      0.33658865       0.99999938    1.7358032e-09
      0.33933282       0.99999937    1.7936794e-09
      0.34209937       0.99999936    1.8538268e-09
      0.34488847       0.99999935    1.9156630e-09
      0.34770032       0.99999934    1.9796960e-09
      0.35053508       0.99999933    2.0459165e-09
      0.35339296       0.99999931    2.1143622e-09
      0.35627414       0.99999930    2.1848224e-09
      0.35917881       0.99999929    2.2573345e-09
      0.36210716       0.99999928    2.3326027e-09
      0.36505938       0.99999927    2.4101082e-09
      0.36803568       0.99999926    2.4903422e-09
      0.37103624       0.99999924    2.5729835e-09
      0.37406126       0.99999923    2.6588022e-09
      0.37711095       0.99999922    2.7470099e-09
      0.38018549       0.99999921    2.8376678e-09
      0.38328511       0.99999919    2.9316479e-09
      0.38641000       0.99999918    3.0289147e-09
      0.38956036       0.99999917    3.1290103e-09
      0.39273641       0.99999915    3.2325296e-09
      0.39593835       0.99999914    3.3394942e-09
      0.39916640       0.99999913    3.4501809e-09
      0.40242076       0.99999911    3.5639838e-09
      0.40570166       0.99999910    3.6823445e-09
      0.40900931       0.99999908    3.8026753e-09
      0.41234392       0.99999907    3.9244816e-09
      0.41570572       0.99999905    4.0532176e-09
      0.41909493       0.99999904    4.1862959e-09
      0.42251177       0.99999902    4.3245152e-09
      0.42595647       0.99999900    4.4663868e-09
      0.42942925       0.99999899    4.6138332e-09
      0.43293034       0.99999897    4.7650911e-09
      0.43645998       0.99999895    4.9223545e-09
      0.44001840       0.99999894    5.0835909e-09
      0.44360583       0.99999892    5.2513350e-09
      0.44722250       0.99999890    5.4232227e-09
      0.45086866       0.99999888    5.6021344e-09
      0.45454455       0.99999886    5.7853665e-09
      0.45825041       0.99999885    5.9761788e-09
      0.46198648       0.99999883    6.1714911e-09
      0.46575301       0.99999881    6.3750063e-09
      0.46955025       0.99999879    6.5831965e-09
      0.47337845       0.99999877    6.8002635e-09
      0.47723786       0.99999875    7.0222023e-09
      0.48112873       0.99999873    7.2536541e-09
      0.48505133       0.99999871    7.4901627e-09
      0.48900590       0.99999869    7.7370046e-09
      0.49299272       0.99999866    7.9890977e-09
      0.49701204       0.99999864    8.2522936e-09
      0.50106413       0.99999862    8.5210286e-09
      0.50514926       0.99999860    8.8015989e-09
      0.50926770       0.99999857    9.0881591e-09
      0.51341971       0.99999855    9.3871750e-09
      0.51760557       0.99999853    9.6927521e-09
      0.52182555       0.99999850    1.0011423e-08
      0.52607995       0.99999848    1.0337265e-08
      0.53036903       0.99999845    1.0676821e-08
      0.53469307       0.99999843    1.1024215e-08
      0.53905238       0.99999840    1.1386055e-08
      0.54344722       0.99999837    1.1756450e-08
      0.54787789       0.99999835    1.2142017e-08
      0.55234469       0.99999832    1.2536911e-08
      0.55684790       0.99999829    1.2947748e-08
      0.56138783       0.99999827    1.3368752e-08
      0.56596477       0.99999824    1.3806495e-08
      0.57057902       0.99999821    1.4255309e-08
      0.57523090       0.99999818    1.4721612e-08
      0.57992070       0.99999815    1.5199980e-08
      0.58464874       0.99999812    1.5696846e-08
      0.58941532       0.99999809    1.6206843e-08
      0.59422077       0.99999806    1.6736180e-08
      0.59906539       0.99999802    1.7279809e-08
      0.60394951       0.99999799    1.7843735e-08
      0.60887346       0.99999796    1.8423178e-08
      0.61383754       0.99999792    1.9023887e-08
      0.61884210       0.99999789    1.9641451e-08
      0.62388746       0.99999786    2.0281286e-08
      0.62897395       0.99999782    2.0939442e-08
      0.63410192       0.99999778    2.1620937e-08
      0.63927169       0.99999775    2.2322378e-08
      0.64448361       0.99999771    2.3048372e-08
      0.64973802       0.99999767    2.3795972e-08
      0.65503527       0.99999763    2.4569203e-08
      0.66037571       0.99999760    2.5365844e-08
      0.66575969       0.99999756    2.6189420e-08
      0.67118757       0.99999752    2.7038330e-08
      0.67665969       0.99999748    2.7915314e-08
      0.68217644       0.99999743    2.8819778e-08
      0.68773815       0.99999739    2.9753742e-08
      0.69334522       0.99999735    3.0717522e-08
      0.69899799       0.99999731    3.1712198e-08
      0.70469686       0.99999726    3.2738980e-08
      0.71044218       0.99999722    3.3797888e-08
      0.71623435       0.99999717    3.4891789e-08
      0.72207374       0.99999712    3.6019522e-08
      0.72796073       0.99999708    3.7185005e-08
      0.73389573       0.99999703    3.8385715e-08
      0.73987911       0.99999698    3.9627192e-08
      0.74591127       0.99999693    4.0905519e-08
      0.75199261       0.99999688    4.2227991e-08
      0.75812354       0.99999683    4.3589004e-08
      0.76430445       0.99999678    4.4997479e-08
      0.77053575       0.99999672    4.6446146e-08
      0.77681785       0.99999667    4.7946312e-08
      0.78315117       0.99999661    4.9488583e-08
      0.78953613       0.99999656    5.1086490e-08
      0.79597314       0.99999650    5.2728247e-08
      0.80246263       0.99999644    5.4430012e-08
      0.80900503       0.99999638    5.6177478e-08
      0.81560077       0.99999633    5.7989597e-08
      0.82225028       0.99999626    5.9849400e-08
      0.82895401       0.99999620    6.1779106e-08
      0.83571239       0.99999614    6.3758552e-08
      0.84252588       0.99999608    6.5812917e-08
      0.84939491       0.99999601    6.7918917e-08
      0.85631994       0.99999595    7.0106554e-08
      0.86330144       0.99999588    7.2348307e-08
      0.87033985       0.99999581    7.4677177e-08
      0.87743565       0.99999574    7.7062200e-08
      0.88458929       0.99999567    7.9541697e-08
      0.89180126       0.99999560    8.2079757e-08
      0.89907203       0.99999553    8.4718817e-08
      0.90640208       0.99999546    8.7418637e-08
      0.91379189       0.99999538    9.0228190e-08
      0.92124195       0.99999531    9.3101171e-08
      0.92875274       0.99999523    9.6091143e-08
      0.93632477       0.99999515    9.9146852e-08
      0.94395854       0.99999507    1.0232973e-07
      0.95165454       0.99999499    1.0558108e-07
      0.95941329       0.99999491    1.0896714e-07
      0.96723529       0.99999482    1.1242415e-07
      0.97512107       0.99999474    1.1602820e-07
      0.98307114       0.99999465    1.1970748e-07
      0.99108602       0.99999456    1.2354028e-07
      0.99916625       0.99999448    1.2745493e-07
       1.0073124       0.99999438    1.3153196e-07
       1.0155249       0.99999429    1.3569808e-07
       1.0238044       0.99999420    1.4003195e-07
       1.0321513       0.99999410    1.4446288e-07
       1.0405664       0.99999401    1.4907213e-07
       1.0490500       0.99999391    1.5378682e-07
       1.0576028       0.99999381    1.5868693e-07
       1.0662253       0.99999371    1.6370155e-07
       1.0749182       0.99999360    1.6891096e-07
       1.0836819       0.99999350    1.7424504e-07
       1.0925170       0.99999339    1.7978385e-07
       1.1014242       0.99999328    1.8545797e-07
       1.1104040       0.99999317    1.9134486e-07
       1.1194570       0.99999306    1.9737827e-07
       1.1285839       0.99999295    2.0363412e-07
       1.1377851       0.99999283    2.1004889e-07
       1.1470613       0.99999271    2.1669767e-07
       1.1564132       0.99999259    2.2351865e-07
       1.1658413       0.99999247    2.3058452e-07
       1.1753463       0.99999235    2.3783680e-07
       1.1849288       0.99999222    2.4534502e-07
       1.1945894       0.99999210    2.5305493e-07
       1.2043288       0.99999197    2.6103278e-07
       1.2141476       0.99999184    2.6922779e-07
       1.2240464       0.99999170    2.7770082e-07
       1.2340259       0.99999157    2.8641032e-07
       1.2440868       0.99999143    2.9541353e-07
       1.2542298       0.99999129    3.0467233e-07
       1.2644554       0.99999115    3.1423916e-07
       1.2747644       0.99999100    3.2407788e-07
       1.2851574       0.99999086    3.3423198e-07
       1.2956351       0.99999071    3.4468451e-07
       1.3061983       0.99999055    3.5547361e-07
       1.3168476       0.99999040    3.6657996e-07
       1.3275838       0.99999024    3.7803176e-07
       1.3384074       0.99999008    3.8982598e-07
       1.3493193       0.99998992    4.0198181e-07
       1.3603202       0.99998976    4.1450919e-07
       1.3714108       0.99998959    4.2741711e-07
       1.3825918       0.99998942    4.4072602e-07
       1.3938639       0.99998925    4.5443231e-07
       1.4052279       0.99998908    4.6856277e-07
       1.4166846       0.99998890    4.8310131e-07
       1.4282347       0.99998872    4.9810279e-07
       1.4398790       0.99998854    5.1353599e-07
       1.4516182       0.99998835    5.2946429e-07
       1.4634531       0.99998816    5.4583958e-07
       1.4753845       0.99998797    5.6274848e-07
       1.4874131       0.99998777    5.8012452e-07
       1.4995399       0.99998758    5.9807483e-07
       1.5117655       0.99998737    6.1651190e-07
       1.5240907       0.99998717    6.3556291e-07
       1.5365165       0.99998696    6.5511864e-07
       1.5490436       0.99998675    6.7532423e-07
       1.5616728       0.99998654    6.9605286e-07
       1.5744049       0.99998632    7.1749101e-07
       1.5872409       0.99998610    7.3947832e-07
       1.6001815       0.99998588    7.6221724e-07
       1.6132277       0.99998565    7.8552438e-07
       1.6263801       0.99998542    8.0964742e-07
       1.6396399       0.99998519    8.3436498e-07
       1.6530077       0.99998495    8.5994750e-07
       1.6664845       0.99998471    8.8614515e-07
       1.6800712       0.99998447    9.1326968e-07
       1.6937687       0.99998422    9.4103360e-07
       1.7075778       0.99998397    9.6978164e-07
       1.7214995       0.99998371    9.9919231e-07
       1.7355347       0.99998345    1.0296650e-06
       1.7496844       0.99998319    1.0608284e-06
       1.7639494       0.99998292    1.0931155e-06
       1.7783307       0.99998265    1.1261195e-06
       1.7928292       0.99998238    1.1603284e-06
       1.8074460       0.99998210    1.1952806e-06
       1.8221819       0.99998182    1.2315294e-06
       1.8370380       0.99998153    1.2685519e-06
       1.8520152       0.99998124    1.3069280e-06
       1.8671145       0.99998095    1.3461043e-06
       1.8823369       0.99998065    1.3867426e-06
       1.8976834       0.99998035    1.4282140e-06
       1.9131550       0.99998005    1.4712476e-06
       1.9287528       0.99997974    1.5151670e-06
       1.9444777       0.99997942    1.5606964e-06
       1.9603309       0.99997911    1.6071800e-06
       1.9763133       0.99997879    1.6553277e-06
       1.9924260       0.99997846    1.7045043e-06
       2.0086700       0.99997813    1.7554278e-06
       2.0250465       0.99997780    1.8074580e-06
       2.0415565       0.99997746    1.8613066e-06
       2.0582011       0.99997712    1.9163451e-06
       2.0749815       0.99997678    1.9732629e-06
       2.0918986       0.99997643    2.0314572e-06
       2.1089536       0.99997609    2.0916099e-06
       2.1261477       0.99997573    2.1531298e-06
       2.1434820       0.99997538    2.2166695e-06
       2.1609576       0.99997502    2.2816841e-06
       2.1785757       0.99997466    2.3488341e-06
       2.1963374       0.99997430    2.4175508e-06
       2.2142439       0.99997394    2.4884418e-06
       2.2322964       0.99997358    2.5610095e-06
       2.2504961       0.99997321    2.6358434e-06
       2.2688442       0.99997285    2.7124686e-06
       2.2873419       0.99997250    2.7914428e-06
       2.3059904       0.99997214    2.8723314e-06
       2.3247909       0.99997179    2.9556661e-06
       2.3437447       0.99997145    3.0410450e-06
       2.3628530       0.99997113    3.1289633e-06
       2.3821171       0.99997083    3.2190415e-06
       2.4015383       0.99997056    3.3117110e-06
       2.4211178       0.99997033    3.4066875e-06
       2.4408569       0.99997019    3.5043702e-06
       2.4607570       0.99997042    3.6045885e-06
       2.4808193       0.99997124    3.7077539e-06
       2.5010452       0.99997509    5.9214670e-07
       2.5214360       0.99997091    6.1088442e-07
       2.5419930       0.99996812    6.3018065e-07
       2.5627176       0.99996723    6.5010027e-07
       2.5836112       0.99996640    6.7062603e-07
       2.6046751       0.99996564    6.9180715e-07
       2.6259108       0.99996490    7.1364514e-07
       2.6473196       0.99996418    7.3616883e-07
       2.6689029       0.99996346    7.5940421e-07
       2.6906622       0.99996275    7.8335883e-07
       2.7125989       0.99996203    8.0807799e-07
       2.7347145       0.99996132    8.3354617e-07
       2.7570104       0.99996060    8.5983550e-07
       2.7794880       0.99995987    8.8690139e-07
       2.8021489       0.99995914    9.1486778e-07
       2.8249946       0.99995840    9.4365781e-07
       2.8480265       0.99995765    9.7341760e-07
       2.8712461       0.99995689    1.0040359e-06
       2.8946551       0.99995613    1.0356783e-06
       2.9182550       0.99995535    1.0682023e-06
       2.9420472       0.99995456    1.1018682e-06
       2.9660335       0.99995376    1.1364779e-06
       2.9902152       0.99995296    1.1722973e-06
       3.0145942       0.99995213    1.2090883e-06
       3.0391719       0.99995130    1.2471802e-06
       3.0639499       0.99995045    1.2862828e-06
       3.0889300       0.99994960    1.3268245e-06
       3.1141138       0.99994872    1.3684357e-06
       3.1395029       0.99994784    1.4115273e-06
       3.1650989       0.99994694    1.4557090e-06
       3.1909037       0.99994603    1.5015022e-06
       3.2169188       0.99994510    1.5484360e-06
       3.2431460       0.99994416    1.5971500e-06
       3.2695871       0.99994320    1.6470642e-06
       3.2962437       0.99994223    1.6988251e-06
       3.3231177       0.99994124    1.7518205e-06
       3.3502107       0.99994024    1.8068643e-06
       3.3775247       0.99993922    1.8632085e-06
       3.4050613       0.99993819    1.9217511e-06
       3.4328224       0.99993713    1.9816439e-06
       3.4608099       0.99993607    2.0438501e-06
       3.4890255       0.99993498    2.1074522e-06
       3.5174712       0.99993387    2.1735600e-06
       3.5461488       0.99993275    2.2411208e-06
       3.5750602       0.99993161    2.3114232e-06
       3.6042074       0.99993045    2.3832405e-06
       3.6335921       0.99992927    2.4579375e-06
       3.6632164       0.99992808    2.5342041e-06
       3.6930823       0.99992686    2.6136102e-06
       3.7231916       0.99992562    2.6946634e-06
       3.7535465       0.99992436    2.7790339e-06
       3.7841488       0.99992308    2.8651794e-06
       3.8150006       0.99992178    2.9548304e-06
       3.8461039       0.99992046    3.0464140e-06
       3.8774608       0.99991912    3.1416506e-06
       3.9090734       0.99991775    3.2389919e-06
       3.9409437       0.99991637    3.3401807e-06
       3.9730738       0.99991496    3.4436503e-06
       4.0054659       0.99991352    3.5511511e-06
       4.0381221       0.99991206    3.6611252e-06
       4.0710445       0.99991058    3.7752761e-06
       4.1042353       0.99990908    3.8921125e-06
       4.1376967       0.99990754    4.0133454e-06
       4.1714310       0.99990599    4.1374983e-06
       4.2054403       0.99990440    4.2663097e-06
       4.2397268       0.99990279    4.3982904e-06
       4.2742929       0.99990116    4.5351473e-06
       4.3091408       0.99989950    4.6754133e-06
       4.3442728       0.99989780    4.8207014e-06
       4.3796912       0.99989609    4.9697044e-06
       4.4153984       0.99989434    5.1240326e-06
       4.4513967       0.99989256    5.2823857e-06
       4.4876885       0.99989076    5.4463203e-06
       4.5242762       0.99988892    5.6145892e-06
       4.5611622       0.99988705    5.7886675e-06
       4.5983489       0.99988515    5.9674546e-06
       4.6358388       0.99988322    6.1523639e-06
       4.6736344       0.99988126    6.3423302e-06
       4.7117381       0.99987927    6.5386315e-06
       4.7501524       0.99987724    6.7404419e-06
       4.7888799       0.99987518    6.9489576e-06
       4.8279232       0.99987309    7.1634078e-06
       4.8672848       0.99987096    7.3848464e-06
       4.9069673       0.99986879    7.6126762e-06
       4.9469733       0.99986659    7.8477796e-06
       4.9873055       0.99986435    8.0897978e-06
       5.0279666       0.99986207    8.3394479e-06
       5.0689591       0.99985976    8.5965487e-06
       5.1102858       0.99985741    8.8616050e-06
       5.1519495       0.99985502    9.1347286e-06
       5.1939528       0.99985259    9.4162113e-06
       5.2362986       0.99985012    9.7063340e-06
       5.2789897       0.99984760    1.0005130e-05
       5.3220288       0.99984505    1.0313297e-05
       5.3654187       0.99984245    1.0630562e-05
       5.4091625       0.99983982    1.0957876e-05
       5.4532629       0.99983713    1.1294666e-05
       5.4977228       0.99983441    1.1642285e-05
       5.5425452       0.99983163    1.1999793e-05
       5.5877330       0.99982881    1.2369023e-05
       5.6332893       0.99982595    1.2748595e-05
       5.6792169       0.99982304    1.3140674e-05
       5.7255190       0.99982008    1.3543484e-05
       5.7721986       0.99981707    1.3959868e-05
       5.8192588       0.99981401    1.4387496e-05
       5.8667027       0.99981090    1.4829693e-05
       5.9145333       0.99980774    1.5283593e-05
       5.9627539       0.99980452    1.5753107e-05
       6.0113677       0.99980126    1.6234797e-05
       6.0603778       0.99979794    1.6733250e-05
       6.1097875       0.99979457    1.7244354e-05
       6.1596000       0.99979114    1.7770088e-05
       6.2098186       0.99978765    1.8307831e-05
       6.2604467       0.99978410    1.8867518e-05
       6.3114875       0.99978050    1.9441651e-05
       6.3629444       0.99977683    2.0036901e-05
       6.4148209       0.99977311    2.0646508e-05
       6.4671203       0.99976933    2.1278847e-05
       6.5198461       0.99976548    2.1926152e-05
       6.5730018       0.99976157    2.2597881e-05
       6.6265908       0.99975760    2.3285144e-05
       6.6806168       0.99975356    2.3998570e-05
       6.7350832       0.99974946    2.4728122e-05
       6.7899937       0.99974529    2.5485918e-05
       6.8453519       0.99974105    2.6260512e-05
       6.9011614       0.99973674    2.7065333e-05
       6.9574259       0.99973236    2.7887590e-05
       7.0141491       0.99972792    2.8741508e-05
       7.0713348       0.99972340    2.9613471e-05
       7.1289867       0.99971881    3.0518750e-05
       7.1871086       0.99971415    3.1442684e-05
       7.2457044       0.99970941    3.2398635e-05
       7.3047779       0.99970459    3.3374278e-05
       7.3643331       0.99969970    3.4388443e-05
       7.4243738       0.99969473    3.5423896e-05
       7.4849040       0.99968967    3.6499878e-05
       7.5459277       0.99968453    3.7599011e-05
       7.6074489       0.99967932    3.8741131e-05
       7.6694717       0.99967401    3.9908407e-05
       7.7320001       0.99966863    4.1120427e-05
       7.7950384       0.99966316    4.2359693e-05
       7.8585906       0.99965760    4.3645802e-05
       7.9226609       0.99965195    4.4961369e-05
       7.9872536       0.99964622    4.6325561e-05
       8.0523729       0.99964039    4.7721876e-05
       8.1180231       0.99963448    4.9170157e-05
       8.1842086       0.99962847    5.0652663e-05
       8.2509337       0.99962239    5.2186969e-05
       8.3182027       0.99961621    5.3754327e-05
       8.3860202       0.99960993    5.5361140e-05
       8.4543906       0.99960355    5.7006291e-05
       8.5233185       0.99959706    5.8704346e-05
       8.5928082       0.99959047    6.0444138e-05
       8.6628646       0.99958378    6.2240984e-05
       8.7334921       0.99957698    6.4083788e-05
       8.8046954       0.99957007    6.5988954e-05
       8.8764792       0.99956306    6.7943447e-05
       8.9488483       0.99955593    6.9962439e-05
       9.0218074       0.99954870    7.2034767e-05
       9.0953613       0.99954135    7.4174803e-05
       9.1695149       0.99953389    7.6372719e-05
       9.2442731       0.99952632    7.8641868e-05
       9.3196408       0.99951863    8.0972918e-05
       9.3956229       0.99951083    8.3377672e-05
       9.4722245       0.99950291    8.5849336e-05
       9.5494506       0.99949487    8.8398411e-05
       9.6273064       0.99948672    9.1019553e-05
       9.7057969       0.99947845    9.3721570e-05
       9.7849273       0.99947005    9.6494011e-05
       9.8647029       0.99946154    9.9341710e-05
       9.9451288       0.99945291    0.00010226611
       10.026211       0.99944414    0.00010527092
       10.107953       0.99943524    0.00010835765
       10.190362       0.99942621    0.00011152813
       10.273443       0.99941704    0.00011479279
       10.357202       0.99940773    0.00011815086
       10.441643       0.99939829    0.00012161029
       10.526773       0.99938871    0.00012516720
       10.612597       0.99937899    0.00012883273
       10.699120       0.99936913    0.00013259969
       10.786349       0.99935913    0.00013648323
       10.874289       0.99934899    0.00014047261
       10.962946       0.99933871    0.00014458783
       11.052326       0.99932828    0.00014881395
       11.142434       0.99931772    0.00015317516
       11.233278       0.99930700    0.00015765172
       11.324861       0.99929614    0.00016227280
       11.417192       0.99928514    0.00016701384
       11.510275       0.99927400    0.00017191079
       11.604117       0.99926270    0.00017693284
       11.698725       0.99925128    0.00018212123
       11.794103       0.99923970    0.00018743981
       11.890259       0.99922800    0.00019290916
       11.987199       0.99921615    0.00019850328
       12.084930       0.99920413    0.00020425867
       12.183457       0.99919194    0.00021014446
       12.282788       0.99917960    0.00021625608
       12.382928       0.99916709    0.00022251892
       12.483885       0.99915446    0.00022900225
       12.585665       0.99914164    0.00023563734
       12.688275       0.99912873    0.00024250861
       12.791721       0.99911563    0.00024953741
       12.896010       0.99910245    0.00025681636
       13.001150       0.99908908    0.00026425847
       13.107148       0.99907565    0.00027193757
       13.214009       0.99906203    0.00027978145
       13.321741       0.99904839    0.00028787104
       13.430352       0.99903455    0.00029613092
       13.539849       0.99902059    0.00030452561
       13.650238       0.99900643    0.00031308421
       13.761527       0.99899212    0.00032194925
       13.873723       0.99897759    0.00033099647
       13.986834       0.99896296    0.00034037109
       14.100868       0.99894811    0.00034993544
       14.215831       0.99893318    0.00035984696
       14.331731       0.99891803    0.00036996083
       14.448576       0.99890279    0.00038048026
       14.566374       0.99888733    0.00039122051
       14.685132       0.99887184    0.00040239298
       14.804859       0.99885614    0.00041380552
       14.925561       0.99884048    0.00042567023
       15.047248       0.99882462    0.00043779143
       15.169927       0.99880880    0.00045034158
       15.293606       0.99879279    0.00046316854
       15.418293       0.99877685    0.00047644428
       15.543997       0.99876075    0.00049001852
       15.670725       0.99874477    0.00050406086
       15.798487       0.99872864    0.00051840544
       15.927291       0.99871270    0.00053314628
       16.057145       0.99869661    0.00054820151
       16.188057       0.99868061    0.00056364425
       16.320037       0.99866449    0.00057943925
       16.453092       0.99864847    0.00059571483
       16.587233       0.99863236    0.00061237676
       16.722467       0.99861643    0.00062956986
       16.858803       0.99860046    0.00064717710
       16.996252       0.99858473    0.00066533754
       17.134820       0.99856908    0.00068394771
       17.274519       0.99855390    0.00070314665
       17.415356       0.99853890    0.00072263456
       17.557342       0.99852449    0.00074230800
       17.700486       0.99850997    0.00076215635
       17.844796       0.99849540    0.00078197975
       17.990283       0.99848067    0.00080233478
       18.136956       0.99846576    0.00082334553
       18.284825       0.99845078    0.00084519409
       18.433899       0.99843581    0.00086815231
       18.584189       0.99842135    0.00089216559
       18.735704       0.99840774    0.00091752353
       18.888454       0.99839497    0.00094356669
       19.042450       0.99838338    0.00097036425
       19.197701       0.99837276    0.00099772584
       19.354218       0.99836332     0.0010256675
       19.512011       0.99835490     0.0010540842
       19.671091       0.99834761     0.0010829784
       19.831467       0.99834150     0.0011124398
       19.993151       0.99833658     0.0011424774
       20.156154       0.99833333     0.0011733178
       20.320485       0.99833163     0.0012049527
       20.486156       0.99833232     0.0012374655
       20.653177       0.99833503     0.0012708229
       20.821561       0.99834323     0.0013051188
       20.991317       0.99835565     0.0013402955
       21.162457       0.99837488     0.0013715140
       21.334993       0.99839896     0.0014002430
       21.508935       0.99842312     0.0014215178
       21.684295       0.99844764     0.0014383565
       21.861085       0.99847489     0.0014558112
       22.039316       0.99850403     0.0014737140
       22.219001       0.99854563     0.0014967552
       22.400150       0.99859402     0.0015225322
       22.582776       0.99885266     0.0015593197
       22.766892       0.99920823     0.0016013851
       22.952508       0.99919268     0.0010048390
       23.139637       0.99872399     0.0010310162
       23.328293       0.99854978     0.0010579619
       23.518486       0.99847544     0.0010855194
       23.710230       0.99842587     0.0011139093
       23.903537       0.99838316     0.0011429393
       24.098420       0.99835282     0.0011728293
       24.294892       0.99832537     0.0012033767
       24.492966       0.99830728     0.0012348483
       24.692655       0.99829115     0.0012670046
       24.893972       0.99828420     0.0013001416
       25.096930       0.99827906     0.0013339887
       25.301543       0.99828486     0.0013688896
       25.507824       0.99829270     0.0014045298
       25.715787       0.99831587     0.0014412858
       25.925445       0.99834165     0.0014788076
       26.136813       0.99839290     0.0015175096
       26.349904       0.99844789     0.0015570042
       26.564732       0.99855804     0.0015977605
       26.781312       0.99867454     0.0016393400
       26.999657       0.99905330     0.0016822632
       27.219783       0.99945114     0.0017260399
       27.441703        1.0001363    0.00025078301
       27.665432       0.99885807    0.00025715715
       27.890986       0.99863863    0.00026372975
       28.118378       0.99841735    0.00027043232
       28.347625       0.99828178    0.00027734738
       28.578740       0.99814517    0.00028440134
       28.811740       0.99803812    0.00029167636
       29.046639       0.99793022    0.00029909964
       29.283454       0.99783685    0.00030675135
       29.522199       0.99774270    0.00031456142
       29.762891       0.99765686    0.00032260974
       30.005545       0.99757026    0.00033082733
       30.250177       0.99748877    0.00033929623
       30.496804       0.99740651    0.00034794557
       30.745441       0.99732755    0.00035685302
       30.996106       0.99724781    0.00036593945
       31.248814       0.99717021    0.00037523264
       31.503583       0.99709173    0.00038468800
       31.760428       0.99701423    0.00039425891
       32.019368       0.99693586    0.00040426071
       32.280419       0.99685814    0.00041530201
       32.543598       0.99677966    0.00042667117
       32.808923       0.99670185    0.00043859679
       33.076411       0.99662328    0.00045081168
       33.346079       0.99654509    0.00046340949
       33.617947       0.99646609    0.00047631810
       33.892031       0.99638712    0.00048962781
       34.168349       0.99630740    0.00050327021
       34.446920       0.99622768    0.00051732866
       34.727763       0.99614727    0.00053158084
       35.010895       0.99606682    0.00054595401
       35.296335       0.99598530    0.00056025233
       35.584103       0.99590295    0.00057422096
       35.874217       0.99581943    0.00058852377
       36.166696       0.99573488    0.00060320297
       36.461559       0.99564921    0.00061823720
       36.758827       0.99556254    0.00063366203
       37.058518       0.99547472    0.00064946535
       37.360653       0.99538584    0.00066567592
       37.665250       0.99529580    0.00068228762
       37.972331       0.99520463    0.00069932124
       38.281916       0.99511227    0.00071678379
       38.594025       0.99501870    0.00073468793
       38.908678       0.99492390    0.00075304639
       39.225897       0.99482781    0.00077186161
       39.545702       0.99473048    0.00079116048
       39.868114       0.99463182    0.00081093467
       40.193155       0.99453184    0.00083116927
       40.520846       0.99443043    0.00085185481
       40.851209       0.99432766    0.00087306699
       41.184265       0.99422339    0.00089477775
       41.520036       0.99411769    0.00091706227
       41.858545       0.99401041    0.00093987525
       42.199813       0.99390169    0.00096329979
       42.543864       0.99379134    0.00098727425
       42.890720       0.99367951     0.0010118964
       43.240404       0.99356597     0.0010370885
       43.592939       0.99345094     0.0010629658
       43.948348       0.99333415     0.0010894345
       44.306655       0.99321587     0.0011165950
       44.667883       0.99309578     0.0011443531
       45.032056       0.99297408     0.0011727445
       45.399198       0.99285048     0.0012017177
       45.769333       0.99272515     0.0012314597
       46.142486       0.99259783     0.0012618409
       46.518681       0.99246878     0.0012930783
       46.897943       0.99233766     0.0013249916
       47.280298       0.99220508     0.0013578137
       47.665769       0.99207045     0.0013913373
       48.054384       0.99193424     0.0014252722
       48.446167       0.99179589     0.0014598057
       48.841143       0.99165511     0.0014945511
       49.239341       0.99151195     0.0015298763
       49.640784       0.99136623     0.0015661955
       50.045501       0.99121805     0.0016032482
       50.453517       0.99106725     0.0016413481
       50.864859       0.99091392     0.0016802069
       51.279556       0.99075733     0.0017201771
       51.697633       0.99059805     0.0017609342
       52.119119       0.99043435     0.0018047376
       52.544041       0.99026779     0.0018495054
       52.972427       0.99010063     0.0018986397
       53.404306       0.98993073     0.0019488315
       53.839707       0.98976049     0.0020007539
       54.278657       0.98958746     0.0020537088
       54.721185       0.98941305     0.0021084801
       55.167322       0.98923584     0.0021643569
       55.617096       0.98905734     0.0022221254
       56.070536       0.98887608     0.0022810766
       56.527674       0.98869448     0.0023419419
       56.988539       0.98850999     0.0024037790
       57.453161       0.98832331     0.0024646641
       57.921571       0.98813361     0.0025268193
       58.393800       0.98794099     0.0025909213
       58.869879       0.98774535     0.0026563860
       59.349839       0.98754731     0.0027239029
       59.833713       0.98734628     0.0027928768
       60.321531       0.98714313     0.0028639749
       60.813327       0.98693724     0.0029366346
       61.309132       0.98673039     0.0030115255
       61.808979       0.98652094     0.0030875885
       62.312902       0.98631085     0.0031640866
       62.820933       0.98609725     0.0032411478
       63.333106       0.98587972     0.0033167334
       63.849455       0.98565845     0.0033939944
       64.370013       0.98543293     0.0034734386
       64.894816       0.98520392     0.0035546779
       65.423897       0.98497161     0.0036382102
       65.957292       0.98473600     0.0037236516
       66.495035       0.98449758     0.0038114653
       67.037163       0.98425592     0.0039013306
       67.583710       0.98401158     0.0039936946
       68.134713       0.98376510     0.0040865612
       68.690209       0.98351789     0.0041789018
       69.250234       0.98326572     0.0042721964
       69.814824       0.98300782     0.0043659602
       70.384018       0.98274551     0.0044617544
       70.957852       0.98247855     0.0045597657
       71.536364       0.98220742     0.0046599075
       72.119593       0.98193207     0.0047623331
       72.707578       0.98165261     0.0048670169
       73.300355       0.98136902     0.0049740831
       73.897966       0.98108138     0.0050835282
       74.500449       0.98078969     0.0051954413
       75.107844       0.98049392     0.0053098582
       75.720191       0.98019400     0.0054268298
       76.337530       0.97989252     0.0055461142
       76.959903       0.97958920     0.0056677396
       77.587350       0.97928081     0.0057875414
       78.219912       0.97896731     0.0059061346
       78.857631       0.97864632     0.0060273374
       79.500550       0.97831831     0.0061510827
       80.148710       0.97798468     0.0062775570
       80.802155       0.97764546     0.0064066527
       81.460927       0.97730053     0.0065386557
       82.125070       0.97694993     0.0066733983
       82.794628       0.97659356     0.0068111850
       83.469644       0.97623142     0.0069518019
       84.150164       0.97586340     0.0070956281
       84.836232       0.97548946     0.0072423886
       85.527894       0.97510954     0.0073925335
       86.225195       0.97472356     0.0075457229
       86.928180       0.97433168     0.0077024650
       87.636897       0.97393366     0.0078623566
       88.351392       0.97352982     0.0080255889
       89.071713       0.97311974     0.0081919354
       89.797906       0.97270219     0.0083605374
       90.530020       0.97227769     0.0085319451
       91.268102       0.97184463     0.0087074114
       92.012202       0.97140417     0.0088863042
       92.762369       0.97095561     0.0090718325
       93.518651       0.97049961     0.0092615209
       94.281100       0.97003676     0.0094559547
       95.049764       0.96956657     0.0096541801
       95.824696       0.96908806     0.0098574011
       96.605945       0.96860174      0.010064547
       97.393564       0.96810619      0.010276985
       98.187605       0.96760248      0.010493493
       98.988119       0.96708094      0.010718711
       99.795159       0.96654994      0.010948536
       100.60878       0.96601433      0.011201208
       101.42903       0.96547034      0.011459989
       102.25597       0.96492994      0.011725980
       103.08966       0.96438146      0.011997075
       103.93014       0.96382909      0.012275794
       104.77747       0.96326804      0.012559812
       105.63171       0.96270314      0.012851882
       106.49292       0.96212943      0.013149515
       107.36114       0.96155195      0.013455484
       108.23645       0.96096570      0.013767360
       109.11889       0.96037651      0.014087971
       110.00852       0.95977896      0.014414842
       110.90541       0.95918287      0.014750755
       111.80961       0.95857809      0.015091646
       112.72119       0.95796901      0.015426728
       113.64019       0.95735025      0.015767818
       114.56669       0.95671998      0.016113812
       115.50074       0.95607978      0.016466641
       116.44241       0.95542871      0.016828596
       117.39175       0.95476808      0.017197801
       118.34883       0.95409982      0.017576583
       119.31372       0.95342217      0.017963018
       120.28647       0.95273800      0.018359319
       121.26716       0.95204518      0.018763742
       122.25584       0.95134851      0.019178497
       123.25258       0.95064493      0.019601849
       124.25744       0.94994241      0.020035909
       125.27050       0.94923498      0.020470742
       126.29182       0.94853265      0.020893539
       127.32147       0.94781854      0.021318098
       128.35951       0.94709051      0.021735890
       129.40601       0.94634657      0.022153352
       130.46104       0.94558046      0.022561244
       131.52468       0.94479429      0.022976853
       132.59699       0.94397959      0.023400956
       133.67804       0.94314816      0.023833137
       134.76790       0.94229653      0.024274101
       135.86665       0.94142732      0.024723532
       136.97436       0.94053766      0.025182070
       138.09110       0.93962951      0.025649491
       139.21694       0.93870055      0.026126364
       140.35196       0.93775156      0.026612539
       141.49624       0.93678058      0.027108494
       142.64984       0.93578766      0.027614202
       143.81285       0.93477121      0.028130053
       144.98535       0.93372286      0.028658835
       146.16740       0.93264077      0.029201109
       147.35909       0.93153775      0.029771621
       148.56049       0.93041349      0.030370588
       149.77169       0.92927504      0.030981972
       150.99277       0.92812173      0.031605809
       152.22379       0.92694336      0.032242682
       153.46486       0.92574067      0.032892464
       154.71604       0.92450552      0.033555875
       155.97743       0.92324070      0.034232623
       157.24910       0.92193348      0.034931266
       158.53114       0.92059022      0.035648945
       159.82362       0.91922123      0.036411827
       161.12665       0.91782735      0.037207967
       162.44030       0.91640996      0.038022302
       163.76466       0.91496873      0.038853548
       165.09982       0.91347001      0.039703980
       166.44586       0.91192977      0.040571959
       167.80288       0.91034501      0.041503936
       169.17096       0.90872523      0.042474140
       170.55019       0.90707193      0.043493320
       171.94067       0.90538803      0.044543665
       173.34249       0.90367302      0.045651530
       174.75573       0.90192782      0.046793410
       176.18050       0.90014758      0.047969039
       177.61688       0.89833526      0.049170775
       179.06498       0.89645918      0.050411233
       180.52487       0.89454223      0.051679588
       181.99668       0.89242408      0.053038961
       183.48048       0.89023087      0.054439528
       184.97638       0.88802692      0.056159790
       186.48447       0.88578892      0.057969515
       188.00486       0.88367178      0.059868267
       189.53765       0.88154259      0.061813866
       191.08293       0.87941914      0.063857756
       192.64081       0.87726458      0.065950703
       194.21139       0.87510566      0.068152073
       195.79478       0.87291316      0.070404688
       197.39107       0.87066081      0.072786935
       199.00038       0.86836873      0.075223587
       200.62281       0.86612242      0.077981989
       202.25847       0.86384175      0.080808159
       203.90747       0.86168890      0.083817539
       205.56990       0.85950615      0.086893118
       207.24590       0.85751111      0.090170322
       208.93555       0.85549329      0.093516657
       210.63898       0.85364321      0.096942161
       212.35630       0.85177201       0.10043919
       214.08762       0.84995231       0.10400843
       215.83306       0.84811695       0.10766339
       217.59272       0.84635715       0.11152125
       219.36674       0.84459386       0.11547564
       221.15521       0.84296937       0.11964791
       222.95827       0.84136280       0.12392884
       224.77603       0.83998303       0.12844279
       226.60860       0.83863079       0.13305198
       228.45612       0.83748615       0.13776289
       230.31870       0.83638480       0.14260266
       232.19647       0.83550704       0.14768543
       234.08954       0.83471574       0.15291224
       235.99805       0.83426650       0.15839898
       237.92212       0.83397551       0.16404664
       239.86188       0.83420311       0.16997167
       241.81745       0.83482693       0.17592750
       243.78896       0.83659253       0.18172922
       245.77655       0.83845908       0.18720867
       247.78034       0.84048776       0.19163040
       249.80047       0.84249844       0.19614816
       251.83707       0.84436909       0.20078079
       253.89028       0.84637658       0.20526200
       255.96022       0.84860133       0.20932261
       258.04704       0.85082137       0.21337498
       260.15087       0.85296525       0.21734651
       262.27186       0.85537600       0.22138362
       264.41013       0.85819715       0.22548502
       266.56584       0.86105612       0.22909373
       268.73913       0.86392594       0.23189164
       270.93013       0.86670864       0.23473061
       273.13900       0.86933232       0.23761242
       275.36588       0.87211624       0.24038080
       277.61091       0.87508499       0.24299195
       279.87424       0.87798093       0.24530044
       282.15603       0.88077750       0.24724889
       284.45642       0.88375985       0.24923452
       286.77557       0.88693653       0.25125895
       289.11362       0.88997587       0.25247173
       291.47073       0.89288614       0.25289596
       293.84707       0.89516011       0.25333018
       296.24277       0.89688263       0.25376987
       298.65801       0.89835792       0.25428503
       301.09294       0.89964622       0.25485585
       303.54772       0.90079070       0.25549031
       306.02252       0.90184278       0.25616560
       308.51749       0.90269345       0.25681536
       311.03281       0.90342410       0.25744176
       313.56863       0.90392011       0.25816590
       316.12512       0.90428757       0.25894085
       318.70246       0.90449026       0.25981941
       321.30081       0.90461362       0.26074689
       323.92034       0.90452416       0.26178257
       326.56123       0.90433860       0.26286493
       329.22366       0.90401375       0.26421473
       331.90778       0.90363222       0.26567751
       334.61380       0.90334352       0.26738676
       337.34187       0.90309365       0.26919335
       340.09219       0.90312636       0.27096257
       342.86492       0.90326278       0.27272417
       345.66027       0.90294314       0.27404282
       348.47840       0.90249407       0.27522922
       351.31951       0.90166544       0.27678294
       354.18379       0.90073567       0.27843021
       357.07142       0.89979312       0.28039237
       359.98258       0.89884003       0.28243087
       362.91749       0.89783800       0.28452170
       365.87632       0.89681808       0.28663308
       368.85927       0.89525832       0.28879897
       371.86655       0.89359871       0.29098544
       374.89834       0.89179250       0.29406936
       377.95485       0.88994279       0.29728875
       381.03628       0.88855325       0.30084196
       384.14283       0.88718504       0.30446705
       387.27471       0.88597077       0.30813503
       390.43212       0.88475132       0.31185197
       393.61528       0.88309127       0.31561346
       396.82438       0.88139375       0.31942541
       400.05966       0.87963751       0.32426072
       403.32130       0.87786975       0.32918659
       406.60954       0.87683752       0.33471663
       409.92459       0.87581987       0.34033894
       413.26667       0.87530687       0.34606730
       1033.17      0.630000      0.770000
       1078.09      0.600000      0.810000
       1127.09      0.580000      0.910000
       1180.76      0.600000       1.01000
       1239.80      0.570000       1.07000
       1305.05      0.520000       1.21000
       1377.56      0.540000       1.42000
       1458.59      0.680000       1.64000
       1549.75      0.910000       1.81000
       1589.89      0.950000       1.77000
       1699.99       1.04000       1.94000
       1780.04       1.31000       2.03000
       1939.92       1.55000       1.77000
       2099.93       1.46000       1.65000
       2170.14       1.82000      0.971000
       2279.88       1.81000       1.17000
       2319.99       1.45000       2.15000
       2509.72       2.01000       1.71000
       2659.94       1.97000       3.36000
       2699.91       2.53000       2.09000
       2720.05       2.59000       3.47000
       2730.24       2.92000       3.49000
       2850.11       3.03000       2.21000
       2879.91       3.56000       3.55000
       2940.00       4.23000       3.48000
       3059.72       3.84000       1.95000
       3179.79       5.38000       2.18000
       3349.91       4.22000      0.788000
       3440.07       4.36000       0.00000
       3599.88       3.87000      0.251000
       3880.44       3.49000       0.00000
       3999.35       3.40000       0.00000
       4120.31       3.24000     0.0220000
       4199.86       3.29000       0.00000
       4399.57       3.20000       0.00000
       4600.37       3.13000       0.00000
       4799.85       3.08000       0.00000
       4999.19       3.03000       0.00000
       5200.50       3.00000       0.00000
       5390.44       2.95000       0.00000
       5399.83       2.97000       0.00000
       5599.82       2.94000       0.00000
       5798.88       2.92000       0.00000
       6000.97       2.90000       0.00000
       6199.00       2.88000       0.00000
       6400.62       2.87000       0.00000
       6598.19       2.85000       0.00000
       6800.88       2.84000       0.00000
       7000.56       2.83000       0.00000
       7199.77       2.82000       0.00000
       7401.79       2.81000       0.00000
       7601.47       2.81000       0.00000
       7797.48       2.80000       0.00000
       7998.71       2.79000       0.00000
       8199.74       2.79000       0.00000
       8399.73       2.78000       0.00000
       8597.78       2.78000       0.00000
       8799.15       2.77000       0.00000
       8997.10       2.77000       0.00000
       9197.33       2.76000       0.00000
       9399.54       2.76000       0.00000
       9603.41       2.76000       0.00000
       9800.79       2.75000       0.00000
       9998.39       2.75000       0.00000
       10195.7       2.75000       0.00000
       10401.0       2.74000       0.00000
       10596.6       2.74000       0.00000
       10799.7       2.74000       0.00000
       11000.9       2.74000       0.00000
       11199.6       2.74000       0.00000
       11395.2       2.73000       0.00000
       11597.8       2.73000       0.00000
       11796.4       2.73000       0.00000
       12001.9       2.73000       0.00000
       12202.8       2.73000       0.00000
       12399.2       2.72000       0.00000
       12599.6       2.72000       0.00000
       12799.9       2.72000       0.00000
       12999.9       2.72000       0.00000
       13199.2       2.72000       0.00000
       13400.3       2.72000       0.00000
       13600.3       2.72000       0.00000
       13800.1       2.72000       0.00000
       13999.5       2.72000       0.00000
       14200.0       2.71000       0.00000
       14399.5       2.71000       0.00000
       14599.6       2.71000       0.00000
       14800.0       2.71000       0.00000
       15000.6       2.71000       0.00000
       24200.7       2.59000       0.00000
       33800.4       2.58000       0.00000
       37902.8       2.57000       0.00000
       42796.0       2.51000       0.00000
       48907.3       2.49000       0.00000
       57292.1       2.43000       0.00000
       71706.2       2.27000       0.00000
       80402.1       2.06000       0.00000
       111996.       1.30000     0.0750000
       113952.       1.21000     0.0910000
       115978.       1.11000      0.111000
       117964.       1.01000      0.136000
       120019.      0.882000      0.171000
       122028.      0.743000      0.224000
       123992.      0.587000      0.310000
       125996.      0.441000      0.450000
       127999.      0.345000      0.625000
       129999.      0.296000      0.791000
       131992.      0.269000      0.940000
       136003.      0.245000       1.20000
       138001.      0.241000       1.31000
       139995.      0.239000       1.42000
       142000.      0.239000       1.52000
       143995.      0.240000       1.62000
       145996.      0.243000       1.72000
       148000.      0.247000       1.81000
       150006.      0.253000       1.90000
       151992.      0.259000       1.98000
       153993.      0.268000       2.07000
       155989.      0.278000       2.15000
       157997.      0.290000       2.24000
       159995.      0.306000       2.32000
       162002.      0.326000       2.39000
       163995.      0.351000       2.46000
       165993.      0.377000       2.52000
       167995.      0.398000       2.57000
       169999.      0.406000       2.61000
       172003.      0.401000       2.66000
       174007.      0.389000       2.71000
       176008.      0.378000       2.77000
       178004.      0.370000       2.84000
       179994.      0.366000       2.91000
       182002.      0.364000       2.98000
       184001.      0.365000       3.05000
       185989.      0.368000       3.12000
       187991.      0.372000       3.19000
       190008.      0.377000       3.25000
       192009.      0.382000       3.32000
       193992.      0.389000       3.39000
       195985.      0.395000       3.45000
       197988.      0.403000       3.52000
       201988.      0.418000       3.65000
       203982.      0.427000       3.72000
       205981.      0.435000       3.78000
       207985.      0.444000       3.84000
       209993.      0.453000       3.91000
       212004.      0.463000       3.97000
       213980.      0.472000       4.04000
       215993.      0.482000       4.10000
       218006.      0.492000       4.16000
       219979.      0.502000       4.23000
       221987.      0.513000       4.29000
       223993.      0.524000       4.35000
       225993.      0.535000       4.42000
       227988.      0.546000       4.48000
       229976.      0.557000       4.54000
       231998.      0.569000       4.60000
       234013.      0.581000       4.67000
       236018.      0.593000       4.73000
       238011.      0.605000       4.79000
       239992.      0.617000       4.85000
       242007.      0.630000       4.92000
       244007.      0.643000       4.98000
       245992.      0.656000       5.04000
       248010.      0.670000       5.11000
       250010.      0.683000       5.17000
       251992.      0.697000       5.23000
       254005.      0.711000       5.29000
       255998.      0.726000       5.36000
       258023.      0.740000       5.42000
       259971.      0.755000       5.48000
       262003.      0.771000       5.55000
       264012.      0.786000       5.61000
       265994.      0.802000       5.67000
       268007.      0.818000       5.74000
       269991.      0.834000       5.80000
       272005.      0.851000       5.87000
       273989.      0.867000       5.93000
       276002.      0.885000       5.99000
       277982.      0.902000       6.06000
       279991.      0.920000       6.12000
       281965.      0.938000       6.19000
       283967.      0.956000       6.25000
       285998.      0.975000       6.32000
       287991.      0.994000       6.38000
       290012.       1.01000       6.45000
       291992.       1.03000       6.51000
       294000.       1.05000       6.58000
       295966.       1.07000       6.64000
       298029.       1.09000       6.71000
       299976.       1.12000       6.78000
       302022.       1.14000       6.84000
       304022.       1.16000       6.91000
       305972.       1.18000       6.98000
       308025.       1.20000       7.04000
       310028.       1.23000       7.11000
       311978.       1.25000       7.18000
       314032.       1.28000       7.25000
       316034.       1.30000       7.31000
       317979.       1.33000       7.38000
       320031.       1.35000       7.45000
       322026.       1.38000       7.52000
       323961.       1.40000       7.59000
       326006.       1.43000       7.66000
       327989.       1.46000       7.73000
       329997.       1.48000       7.79000
       332030.       1.51000       7.86000
       333998.       1.54000       7.93000
       335989.       1.57000       8.00000
       338004.       1.60000       8.08000
       339951.       1.63000       8.15000
       342014.       1.66000       8.22000
       344007.       1.69000       8.29000
       346023.       1.73000       8.36000
       347965.       1.76000       8.43000
       350028.       1.79000       8.50000
       352016.       1.83000       8.58000
       354026.       1.86000       8.65000
       355958.       1.90000       8.72000
       358013.       1.93000       8.79000
       359988.       1.97000       8.87000
       361985.       2.01000       8.94000
       364005.       2.05000       9.01000
   1.03317e+07       12.8500       0.00000
